%OpenBCI Raw EEG Data
%Number of channels = 4
%Sample Rate = 200.0 Hz
%First Column = SampleIndex
%Last Column = Timestamp 
%Other Columns = EEG data in microvolts followed by Accel Data (in G) interleaved with Aux Data
0, 2.76, 9.19, 7.76, 6.82, 0.016, 0.000, -1.056, 18:56:10.500, 1590857770500
1, 0.03, 3.16, 4.19, 2.04, 0.016, 0.000, -1.056, 18:56:10.500, 1590857770500
2, 5.52, 10.17, 2.87, 7.22, 0.016, 0.000, -1.056, 18:56:10.500, 1590857770500
3, 17.25, 16.79, 13.82, 19.38, 0.016, 0.000, -1.056, 18:56:10.513, 1590857770513
4, 5.31, 7.41, 7.79, 10.30, 0.016, 0.000, -1.056, 18:56:10.513, 1590857770513
5, -1.01, 4.69, 2.85, 6.59, 0.016, 0.000, -1.056, 18:56:10.514, 1590857770514
6, 5.46, 6.99, 4.72, 4.79, 0.016, 0.000, -1.056, 18:56:10.514, 1590857770514
7, 15.38, 19.02, 17.87, 18.94, 0.016, 0.000, -1.056, 18:56:10.528, 1590857770528
8, 1.27, 12.29, 4.96, 9.00, 0.016, 0.000, -1.056, 18:56:10.528, 1590857770528
9, -0.00, 6.97, 7.51, 3.55, 0.016, 0.000, -1.056, 18:56:10.543, 1590857770543
10, 0.27, 10.10, 6.69, 6.11, 0.016, 0.000, -1.056, 18:56:10.543, 1590857770543
11, 15.01, 22.87, 19.54, 20.38, 0.016, 0.000, -1.056, 18:56:10.544, 1590857770544
12, 0.41, 9.73, 2.06, 4.93, 0.016, 0.000, -1.056, 18:56:10.544, 1590857770544
13, 1.41, 2.06, 0.05, 0.20, 0.016, 0.000, -1.056, 18:56:10.558, 1590857770558
14, 2.16, 9.95, 0.53, 3.92, 0.016, 0.000, -1.056, 18:56:10.558, 1590857770558
15, 19.65, 21.96, 16.58, 18.26, 0.016, 0.000, -1.056, 18:56:10.573, 1590857770573
16, -1.50, 11.30, 8.47, 6.71, 0.016, 0.000, -1.056, 18:56:10.573, 1590857770573
17, 0.40, 8.37, -3.36, -3.26, 0.016, 0.000, -1.056, 18:56:10.574, 1590857770574
18, 3.55, 8.01, 7.46, 5.92, 0.016, 0.000, -1.056, 18:56:10.574, 1590857770574
19, 15.79, 18.10, 15.32, 21.29, 0.016, 0.000, -1.056, 18:56:10.589, 1590857770589
20, 0.81, 6.08, 4.86, 7.89, 0.016, 0.000, -1.056, 18:56:10.589, 1590857770589
21, -3.97, 8.16, 1.52, 0.34, 0.016, 0.000, -1.056, 18:56:10.604, 1590857770604
22, 2.31, 6.41, 7.81, 0.67, 0.016, 0.000, -1.056, 18:56:10.604, 1590857770604
23, 15.97, 24.11, 18.84, 23.96, 0.016, 0.000, -1.056, 18:56:10.604, 1590857770604
24, 3.01, 6.11, 3.46, 3.37, 0.016, 0.000, -1.056, 18:56:10.604, 1590857770604
25, -1.46, 5.08, 3.14, 5.67, 0.016, 0.000, -1.056, 18:56:10.618, 1590857770618
26, 3.25, 0.86, 3.21, 5.25, -0.048, -0.480, -0.208, 18:56:10.618, 1590857770618
27, 23.07, 19.79, 19.60, 18.94, -0.048, -0.480, -0.208, 18:56:10.634, 1590857770634
28, 7.99, 8.76, 6.71, 9.75, -0.048, -0.480, -0.208, 18:56:10.634, 1590857770634
29, -1.37, 2.91, -2.09, 6.54, -0.048, -0.480, -0.208, 18:56:10.635, 1590857770635
30, 4.52, 9.58, 4.46, 6.92, -0.048, -0.480, -0.208, 18:56:10.635, 1590857770635
31, 19.23, 23.08, 18.93, 25.19, -0.048, -0.480, -0.208, 18:56:10.648, 1590857770648
32, 8.18, 7.28, 0.38, 7.07, -0.048, -0.480, -0.208, 18:56:10.648, 1590857770648
33, -1.90, 1.48, -2.70, 1.49, -0.048, -0.480, -0.208, 18:56:10.663, 1590857770663
34, 2.00, 12.38, 9.86, 14.02, -0.048, -0.480, -0.208, 18:56:10.663, 1590857770663
35, 22.97, 26.80, 19.05, 24.56, -0.048, -0.480, -0.208, 18:56:10.664, 1590857770664
36, 9.53, 7.94, 4.30, 6.63, -0.048, -0.480, -0.208, 18:56:10.664, 1590857770664
37, -1.04, 2.78, -2.80, 2.28, -0.048, -0.480, -0.208, 18:56:10.678, 1590857770678
38, -0.14, 7.02, 3.00, 5.09, -0.048, -0.480, -0.208, 18:56:10.678, 1590857770678
39, 21.20, 22.18, 16.31, 23.09, -0.048, -0.480, -0.208, 18:56:10.710, 1590857770710
40, 6.70, 7.47, 8.41, 5.41, -0.048, -0.480, -0.208, 18:56:10.710, 1590857770710
41, -0.77, 0.75, -1.39, 1.00, -0.048, -0.480, -0.208, 18:56:10.710, 1590857770710
42, 3.35, 9.50, 1.28, 8.23, -0.048, -0.480, -0.208, 18:56:10.710, 1590857770710
43, 22.67, 25.96, 17.93, 23.34, -0.048, -0.480, -0.208, 18:56:10.711, 1590857770711
44, 5.33, 10.93, 3.80, 10.36, -0.048, -0.480, -0.208, 18:56:10.711, 1590857770711
45, -1.57, 1.33, 0.25, 4.41, -0.048, -0.480, -0.208, 18:56:10.712, 1590857770712
46, 0.91, 9.69, 3.06, 6.25, -0.048, -0.720, -0.304, 18:56:10.712, 1590857770712
47, 17.36, 22.82, 19.69, 24.71, -0.048, -0.720, -0.304, 18:56:10.723, 1590857770723
48, 6.34, 12.81, 9.75, 13.62, -0.048, -0.720, -0.304, 18:56:10.723, 1590857770723
49, -0.54, 1.11, 4.30, 0.05, -0.048, -0.720, -0.304, 18:56:10.738, 1590857770738
50, 3.91, 14.07, 8.32, 10.98, -0.048, -0.720, -0.304, 18:56:10.738, 1590857770738
51, 21.79, 25.58, 20.35, 21.87, -0.048, -0.720, -0.304, 18:56:10.754, 1590857770754
52, 0.13, 11.40, 7.42, 5.87, -0.048, -0.720, -0.304, 18:56:10.754, 1590857770754
53, -3.94, 8.98, -1.80, 3.62, -0.048, -0.720, -0.304, 18:56:10.755, 1590857770755
54, 6.38, 6.80, 6.99, 7.36, -0.048, -0.720, -0.304, 18:56:10.755, 1590857770755
55, 27.09, 17.53, 18.15, 24.02, -0.048, -0.720, -0.304, 18:56:10.769, 1590857770769
56, 0.63, 4.11, 4.52, 5.11, -0.048, -0.720, -0.304, 18:56:10.769, 1590857770769
57, -3.70, -1.60, 0.48, 2.22, -0.048, -0.720, -0.304, 18:56:10.784, 1590857770784
58, 4.57, 6.30, 6.44, 8.13, -0.048, -0.720, -0.304, 18:56:10.784, 1590857770784
59, 19.86, 20.01, 20.45, 29.76, -0.048, -0.720, -0.304, 18:56:10.785, 1590857770785
60, 2.68, 3.08, 4.85, 8.41, -0.048, -0.720, -0.304, 18:56:10.785, 1590857770785
61, -7.19, -0.60, -4.72, 3.27, -0.048, -0.720, -0.304, 18:56:10.814, 1590857770814
62, -0.44, 10.30, 0.53, 3.42, -0.048, -0.720, -0.304, 18:56:10.814, 1590857770814
63, 25.70, 30.97, 20.63, 24.89, -0.048, -0.720, -0.304, 18:56:10.815, 1590857770815
64, 1.12, 11.35, 3.01, 9.94, -0.048, -0.720, -0.304, 18:56:10.815, 1590857770815
65, -5.07, 4.36, -6.21, 2.77, -0.048, -0.720, -0.304, 18:56:10.815, 1590857770815
66, 1.46, 8.12, 9.02, 5.55, -0.048, -0.848, -0.352, 18:56:10.815, 1590857770815
67, 27.58, 25.04, 21.99, 24.85, -0.048, -0.848, -0.352, 18:56:10.828, 1590857770828
68, 3.06, 11.26, 0.68, 6.09, -0.048, -0.848, -0.352, 18:56:10.828, 1590857770828
69, -9.40, 2.12, -4.53, -0.09, -0.048, -0.848, -0.352, 18:56:10.843, 1590857770843
70, 4.17, 9.33, 4.63, 11.76, -0.048, -0.848, -0.352, 18:56:10.843, 1590857770843
71, 23.76, 27.90, 21.97, 27.04, -0.048, -0.848, -0.352, 18:56:10.844, 1590857770844
72, 4.01, 8.98, 3.77, 6.27, -0.048, -0.848, -0.352, 18:56:10.844, 1590857770844
73, -4.14, 3.37, -4.28, -1.19, -0.048, -0.848, -0.352, 18:56:10.890, 1590857770890
74, 8.67, 6.23, 2.12, 7.12, -0.048, -0.848, -0.352, 18:56:10.890, 1590857770890
75, 21.83, 26.00, 21.94, 28.07, -0.048, -0.848, -0.352, 18:56:10.891, 1590857770891
76, 2.91, 7.51, 1.67, 6.88, -0.048, -0.848, -0.352, 18:56:10.891, 1590857770891
77, -1.78, 2.90, -2.97, 3.17, -0.048, -0.848, -0.352, 18:56:10.892, 1590857770892
78, 1.82, 9.20, 1.58, 6.23, -0.048, -0.848, -0.352, 18:56:10.892, 1590857770892
79, 19.01, 32.34, 19.13, 27.92, -0.048, -0.848, -0.352, 18:56:10.893, 1590857770893
80, 1.31, 9.12, 4.26, 6.79, -0.048, -0.848, -0.352, 18:56:10.893, 1590857770893
81, -7.66, -0.56, -4.91, 3.42, -0.048, -0.848, -0.352, 18:56:10.904, 1590857770904
82, 5.59, 6.92, 2.94, 6.81, -0.048, -0.848, -0.352, 18:56:10.904, 1590857770904
83, 25.76, 26.81, 28.00, 25.46, -0.048, -0.848, -0.352, 18:56:10.905, 1590857770905
84, 3.97, 11.48, 2.22, 6.99, -0.048, -0.848, -0.352, 18:56:10.905, 1590857770905
85, -5.69, 1.78, -5.15, -0.32, -0.048, -0.848, -0.352, 18:56:10.918, 1590857770918
86, 0.59, 9.33, 0.54, 7.35, -0.064, -0.880, -0.368, 18:56:10.918, 1590857770918
87, 25.98, 24.16, 21.63, 25.48, -0.064, -0.880, -0.368, 18:56:10.933, 1590857770933
88, 0.65, 8.68, 3.38, 7.18, -0.064, -0.880, -0.368, 18:56:10.933, 1590857770933
89, -6.68, -0.18, -2.66, 1.53, -0.064, -0.880, -0.368, 18:56:10.934, 1590857770934
90, 6.49, 7.15, 6.89, 7.95, -0.064, -0.880, -0.368, 18:56:10.934, 1590857770934
91, 21.16, 24.55, 25.15, 26.52, -0.064, -0.880, -0.368, 18:56:10.948, 1590857770948
92, -0.32, 5.86, -0.90, 7.59, -0.064, -0.880, -0.368, 18:56:10.948, 1590857770948
93, -2.01, -5.02, -1.39, -3.25, -0.064, -0.880, -0.368, 18:56:10.964, 1590857770964
94, 5.94, 7.48, 7.23, 9.46, -0.064, -0.880, -0.368, 18:56:10.964, 1590857770964
95, 24.27, 24.69, 27.33, 27.15, -0.064, -0.880, -0.368, 18:56:10.965, 1590857770965
96, -3.33, 8.89, 3.33, 7.36, -0.064, -0.880, -0.368, 18:56:10.965, 1590857770965
97, -3.71, 5.58, -1.10, -2.95, -0.064, -0.880, -0.368, 18:56:10.994, 1590857770994
98, 7.37, 10.52, 5.79, 5.94, -0.064, -0.880, -0.368, 18:56:10.994, 1590857770994
99, 21.26, 21.68, 19.66, 25.15, -0.064, -0.880, -0.368, 18:56:10.995, 1590857770995
100, -2.45, 7.50, 2.73, 6.77, -0.064, -0.880, -0.368, 18:56:10.995, 1590857770995
101, -10.11, 4.19, -3.70, 1.05, -0.064, -0.880, -0.368, 18:56:10.996, 1590857770996
102, 2.98, 6.81, 4.48, 12.44, -0.064, -0.880, -0.368, 18:56:10.996, 1590857770996
103, 30.29, 26.78, 22.94, 29.66, -0.064, -0.880, -0.368, 18:56:11.008, 1590857771008
104, -0.93, 5.92, 7.36, 9.25, -0.064, -0.880, -0.368, 18:56:11.008, 1590857771008
105, -5.74, -0.63, -1.87, -2.18, -0.064, -0.880, -0.368, 18:56:11.023, 1590857771023
106, 3.14, 9.56, 3.05, 6.59, -0.096, -0.912, -0.384, 18:56:11.023, 1590857771023
107, 26.15, 26.23, 24.55, 32.11, -0.096, -0.912, -0.384, 18:56:11.024, 1590857771024
108, -2.60, 5.19, -1.21, 2.52, -0.096, -0.912, -0.384, 18:56:11.024, 1590857771024
109, -4.62, -4.60, -6.94, 2.82, -0.096, -0.912, -0.384, 18:56:11.038, 1590857771038
110, 2.74, 9.22, 4.72, 1.53, -0.096, -0.912, -0.384, 18:56:11.038, 1590857771038
111, 29.70, 28.57, 29.36, 23.95, -0.096, -0.912, -0.384, 18:56:11.053, 1590857771053
112, 0.39, 11.52, 0.86, 7.78, -0.096, -0.912, -0.384, 18:56:11.053, 1590857771053
113, -5.53, -0.06, -1.86, 0.35, -0.096, -0.912, -0.384, 18:56:11.069, 1590857771069
114, 6.26, 6.58, 3.29, 6.66, -0.096, -0.912, -0.384, 18:56:11.069, 1590857771069
115, 31.59, 30.93, 21.65, 30.54, -0.096, -0.912, -0.384, 18:56:11.069, 1590857771069
116, 1.24, 9.01, 2.81, 5.33, -0.096, -0.912, -0.384, 18:56:11.069, 1590857771069
117, -5.65, -1.33, -3.24, 0.08, -0.096, -0.912, -0.384, 18:56:11.084, 1590857771084
118, 1.42, 10.05, 7.71, 9.93, -0.096, -0.912, -0.384, 18:56:11.084, 1590857771084
119, 34.40, 30.47, 27.97, 30.84, -0.096, -0.912, -0.384, 18:56:11.085, 1590857771085
120, 0.92, 4.93, 2.96, 4.53, -0.096, -0.912, -0.384, 18:56:11.085, 1590857771085
121, -8.82, -0.95, -9.42, -2.66, -0.096, -0.912, -0.384, 18:56:11.098, 1590857771098
122, 0.36, 5.73, 0.03, 3.95, -0.096, -0.912, -0.384, 18:56:11.098, 1590857771098
123, 31.05, 30.23, 27.52, 31.64, -0.096, -0.912, -0.384, 18:56:11.113, 1590857771113
124, 3.63, 3.37, -0.77, 2.61, -0.096, -0.912, -0.384, 18:56:11.113, 1590857771113
125, -7.51, -3.63, -7.47, -2.27, -0.096, -0.912, -0.384, 18:56:11.114, 1590857771114
126, 3.95, 7.21, 3.98, 5.14, -0.128, -0.912, -0.432, 18:56:11.114, 1590857771114
127, 28.96, 28.53, 26.35, 32.67, -0.128, -0.912, -0.432, 18:56:11.144, 1590857771144
128, 0.24, 3.85, -2.97, 0.93, -0.128, -0.912, -0.432, 18:56:11.144, 1590857771144
129, -6.05, -2.00, -1.40, -5.29, -0.128, -0.912, -0.432, 18:56:11.145, 1590857771145
130, 8.02, 8.36, 8.99, 7.43, -0.128, -0.912, -0.432, 18:56:11.145, 1590857771145
131, 31.33, 31.04, 32.38, 30.80, -0.128, -0.912, -0.432, 18:56:11.145, 1590857771145
132, -0.47, 4.08, 0.39, 4.42, -0.128, -0.912, -0.432, 18:56:11.145, 1590857771145
133, -9.68, -2.25, -5.33, -4.65, -0.128, -0.912, -0.432, 18:56:11.158, 1590857771158
134, 5.59, 4.86, 5.88, 5.46, -0.128, -0.912, -0.432, 18:56:11.158, 1590857771158
135, 28.66, 31.73, 26.01, 30.83, -0.128, -0.912, -0.432, 18:56:11.173, 1590857771173
136, -0.05, 4.85, 8.93, 2.92, -0.128, -0.912, -0.432, 18:56:11.173, 1590857771173
137, -6.44, -1.02, 2.47, -3.36, -0.128, -0.912, -0.432, 18:56:11.174, 1590857771174
138, 6.91, 7.90, 4.32, 9.90, -0.128, -0.912, -0.432, 18:56:11.174, 1590857771174
139, 30.10, 27.99, 26.31, 27.29, -0.128, -0.912, -0.432, 18:56:11.188, 1590857771188
140, 0.46, 5.09, 0.77, 0.78, -0.128, -0.912, -0.432, 18:56:11.188, 1590857771188
141, -12.09, 3.59, -3.96, -1.36, -0.128, -0.912, -0.432, 18:56:11.204, 1590857771204
142, 6.75, 8.27, 11.09, 10.89, -0.128, -0.912, -0.432, 18:56:11.204, 1590857771204
143, 34.01, 32.56, 30.80, 32.85, -0.128, -0.912, -0.432, 18:56:11.205, 1590857771205
144, -0.87, 4.61, 0.65, -1.62, -0.128, -0.912, -0.432, 18:56:11.205, 1590857771205
145, -8.63, -3.98, -3.55, -5.08, -0.128, -0.912, -0.432, 18:56:11.218, 1590857771218
146, 0.16, 6.38, 5.97, 9.82, -0.128, -0.928, -0.400, 18:56:11.218, 1590857771218
147, 30.38, 37.56, 29.87, 31.28, -0.128, -0.928, -0.400, 18:56:11.233, 1590857771233
148, -1.49, 8.38, -1.62, 3.17, -0.128, -0.928, -0.400, 18:56:11.233, 1590857771233
149, -11.75, -4.71, -6.56, -3.98, -0.128, -0.928, -0.400, 18:56:11.234, 1590857771234
150, 1.26, 1.40, 7.15, 7.52, -0.128, -0.928, -0.400, 18:56:11.234, 1590857771234
151, 29.81, 35.56, 31.03, 36.75, -0.128, -0.928, -0.400, 18:56:11.248, 1590857771248
152, -3.79, 1.33, -2.40, 4.59, -0.128, -0.928, -0.400, 18:56:11.248, 1590857771248
153, -7.71, -1.04, -8.24, -3.97, -0.128, -0.928, -0.400, 18:56:11.263, 1590857771263
154, 6.56, 7.32, 0.79, 10.85, -0.128, -0.928, -0.400, 18:56:11.263, 1590857771263
155, 26.23, 29.63, 26.99, 34.20, -0.128, -0.928, -0.400, 18:56:11.264, 1590857771264
156, -9.97, 4.59, 1.37, 6.12, -0.128, -0.928, -0.400, 18:56:11.264, 1590857771264
157, -8.06, -2.29, -3.16, -1.48, -0.128, -0.928, -0.400, 18:56:11.278, 1590857771278
158, 5.54, 11.44, 3.23, 8.31, -0.128, -0.928, -0.400, 18:56:11.278, 1590857771278
159, 30.12, 33.97, 26.80, 29.14, -0.128, -0.928, -0.400, 18:56:11.309, 1590857771309
160, -2.17, 3.10, -0.06, 2.77, -0.128, -0.928, -0.400, 18:56:11.309, 1590857771309
161, -10.00, -0.63, -3.11, -2.83, -0.128, -0.928, -0.400, 18:56:11.309, 1590857771309
162, -0.26, 4.69, 1.29, 5.05, -0.128, -0.928, -0.400, 18:56:11.309, 1590857771309
163, 27.57, 29.74, 23.64, 28.22, -0.128, -0.928, -0.400, 18:56:11.354, 1590857771354
164, -0.22, 4.49, -4.18, 0.55, -0.128, -0.928, -0.400, 18:56:11.354, 1590857771354
165, -14.00, -3.16, -6.42, -5.17, -0.128, -0.928, -0.400, 18:56:11.371, 1590857771371
166, 0.33, 8.05, 8.42, 7.07, -0.112, -0.944, -0.464, 18:56:11.371, 1590857771371
167, 30.37, 33.32, 22.09, 31.23, -0.112, -0.944, -0.464, 18:56:11.371, 1590857771371
168, 0.21, 9.93, 0.71, 2.98, -0.112, -0.944, -0.464, 18:56:11.371, 1590857771371
169, -8.04, -3.52, -0.31, -2.15, -0.112, -0.944, -0.464, 18:56:11.372, 1590857771372
170, 2.38, 6.12, 6.49, 5.42, -0.112, -0.944, -0.464, 18:56:11.372, 1590857771372
171, 28.67, 31.97, 23.09, 27.34, -0.112, -0.944, -0.464, 18:56:11.372, 1590857771372
172, 0.39, 5.82, -0.92, 7.57, -0.112, -0.944, -0.464, 18:56:11.372, 1590857771372
173, -9.66, -1.16, -8.75, -0.79, -0.112, -0.944, -0.464, 18:56:11.399, 1590857771399
174, 5.28, 8.74, 2.29, 10.85, -0.112, -0.944, -0.464, 18:56:11.399, 1590857771399
175, 29.23, 29.72, 30.88, 28.60, -0.112, -0.944, -0.464, 18:56:11.399, 1590857771399
176, -0.99, 7.36, -1.29, 4.13, -0.112, -0.944, -0.464, 18:56:11.399, 1590857771399
177, -6.71, -0.13, -3.02, 1.30, -0.112, -0.944, -0.464, 18:56:11.416, 1590857771416
178, 5.46, 8.81, 4.80, 13.12, -0.112, -0.944, -0.464, 18:56:11.416, 1590857771416
179, 25.71, 26.50, 26.92, 30.18, -0.112, -0.944, -0.464, 18:56:11.416, 1590857771416
180, 3.28, 5.00, 3.59, 7.19, -0.112, -0.944, -0.464, 18:56:11.416, 1590857771416
181, -7.06, -1.07, -3.88, -1.76, -0.112, -0.944, -0.464, 18:56:11.417, 1590857771417
182, 9.55, 5.70, 7.46, 2.36, -0.112, -0.944, -0.464, 18:56:11.417, 1590857771417
183, 35.54, 28.86, 27.18, 30.95, -0.112, -0.944, -0.464, 18:56:11.418, 1590857771418
184, 1.13, 5.03, -0.06, 9.09, -0.112, -0.944, -0.464, 18:56:11.418, 1590857771418
185, -7.14, 0.69, -8.39, -3.64, -0.112, -0.944, -0.464, 18:56:11.428, 1590857771428
186, 5.03, 7.40, -0.35, 7.81, -0.048, -0.928, -0.448, 18:56:11.428, 1590857771428
187, 29.04, 30.14, 25.17, 29.24, -0.048, -0.928, -0.448, 18:56:11.429, 1590857771429
188, -0.05, 7.06, 3.67, 7.84, -0.048, -0.928, -0.448, 18:56:11.429, 1590857771429
189, -9.60, 1.54, -6.26, -1.43, -0.048, -0.928, -0.448, 18:56:11.443, 1590857771443
190, 4.61, 6.77, 4.06, 13.85, -0.048, -0.928, -0.448, 18:56:11.443, 1590857771443
191, 30.48, 33.55, 23.80, 31.09, -0.048, -0.928, -0.448, 18:56:11.444, 1590857771444
192, -0.53, 5.52, 0.85, 7.26, -0.048, -0.928, -0.448, 18:56:11.444, 1590857771444
193, -9.27, -4.14, -3.38, -4.57, -0.048, -0.928, -0.448, 18:56:11.458, 1590857771458
194, 2.31, 5.78, 4.34, 2.17, -0.048, -0.928, -0.448, 18:56:11.458, 1590857771458
195, -60.82, -41.14, -46.50, -45.48, -0.048, -0.928, -0.448, 18:56:11.473, 1590857771473
196, 5.01, 10.60, 6.60, 8.24, -0.048, -0.928, -0.448, 18:56:11.473, 1590857771473
197, 6.84, 11.88, 6.81, 9.48, -0.048, -0.928, -0.448, 18:56:11.474, 1590857771474
198, 7.35, 11.82, 6.59, 8.16, -0.048, -0.928, -0.448, 18:56:11.474, 1590857771474
199, 8.70, 10.72, 7.21, 10.63, -0.048, -0.928, -0.448, 18:56:11.488, 1590857771488
200, 7.78, 13.04, 8.06, 10.07, -0.048, -0.928, -0.448, 18:56:11.488, 1590857771488
0, 6.24, 11.54, 10.55, 7.59, -0.048, -0.928, -0.448, 18:56:11.489, 1590857771489
1, 10.95, 16.10, 6.50, 6.14, -0.048, -0.928, -0.448, 18:56:11.566, 1590857771566
2, 6.32, 8.76, 4.42, 10.43, -0.048, -0.928, -0.448, 18:56:11.566, 1590857771566
3, 6.89, 11.35, 10.85, 11.83, -0.048, -0.928, -0.448, 18:56:11.566, 1590857771566
4, 4.34, 7.55, 10.11, 8.79, -0.048, -0.928, -0.448, 18:56:11.566, 1590857771566
5, 13.17, 9.66, 9.39, 8.96, -0.048, -0.928, -0.448, 18:56:11.567, 1590857771567
6, 3.64, 11.03, 7.54, 9.07, -0.080, -0.896, -0.528, 18:56:11.567, 1590857771567
7, 7.07, 11.98, 12.35, 5.44, -0.080, -0.896, -0.528, 18:56:11.568, 1590857771568
8, 10.24, 8.01, 4.36, 5.69, -0.080, -0.896, -0.528, 18:56:11.568, 1590857771568
9, 7.31, 8.48, 8.10, 8.98, -0.080, -0.896, -0.528, 18:56:11.580, 1590857771580
10, 35.85, 30.81, 29.62, 31.74, -0.080, -0.896, -0.528, 18:56:11.580, 1590857771580
11, -2.84, 3.22, 1.82, 6.45, -0.080, -0.896, -0.528, 18:56:11.581, 1590857771581
12, -7.91, -4.14, -11.59, -3.90, -0.080, -0.896, -0.528, 18:56:11.581, 1590857771581
13, 6.57, 8.26, 6.30, 7.74, -0.080, -0.896, -0.528, 18:56:11.582, 1590857771582
14, 31.17, 33.01, 31.74, 30.10, -0.080, -0.896, -0.528, 18:56:11.582, 1590857771582
17, 42.90, 37.94, 48.98, 44.93, -0.080, -0.896, -0.528, 18:56:11.583, 1590857771583
18, 66.98, 57.90, 65.94, 71.18, -0.080, -0.896, -0.528, 18:56:11.583, 1590857771583
19, 34.29, 37.16, 36.50, 44.30, -0.080, -0.896, -0.528, 18:56:11.609, 1590857771609
20, 30.08, 25.60, 30.66, 34.46, -0.080, -0.896, -0.528, 18:56:11.609, 1590857771609
21, 42.87, 42.52, 40.87, 46.65, -0.080, -0.896, -0.528, 18:56:11.610, 1590857771610
22, 67.23, 65.55, 65.63, 72.84, -0.080, -0.896, -0.528, 18:56:11.610, 1590857771610
23, 34.69, 34.00, 36.61, 39.98, -0.080, -0.896, -0.528, 18:56:11.610, 1590857771610
24, 25.09, 24.12, 26.27, 29.44, -0.080, -0.896, -0.528, 18:56:11.610, 1590857771610
25, 40.47, 38.25, 42.66, 46.78, -0.080, -0.896, -0.528, 18:56:11.623, 1590857771623
26, 66.72, 63.69, 65.62, 74.30, -0.064, -0.864, -0.560, 18:56:11.623, 1590857771623
27, 33.22, 32.28, 39.27, 32.61, -0.064, -0.864, -0.560, 18:56:11.638, 1590857771638
28, 30.27, 28.42, 24.62, 33.93, -0.064, -0.864, -0.560, 18:56:11.638, 1590857771638
29, 41.24, 36.86, 38.47, 42.65, -0.064, -0.864, -0.560, 18:56:11.639, 1590857771639
30, 66.78, 63.91, 66.39, 69.42, -0.064, -0.864, -0.560, 18:56:11.639, 1590857771639
31, 35.30, 34.98, 34.04, 36.71, -0.064, -0.864, -0.560, 18:56:11.653, 1590857771653
32, 28.43, 28.34, 26.60, 31.01, -0.064, -0.864, -0.560, 18:56:11.653, 1590857771653
33, 41.89, 38.06, 40.83, 43.96, -0.064, -0.864, -0.560, 18:56:11.669, 1590857771669
34, 72.85, 62.11, 66.47, 70.43, -0.064, -0.864, -0.560, 18:56:11.669, 1590857771669
35, 38.62, 36.08, 36.24, 41.53, -0.064, -0.864, -0.560, 18:56:11.669, 1590857771669
36, 25.53, 24.66, 32.08, 33.97, -0.064, -0.864, -0.560, 18:56:11.669, 1590857771669
37, 37.26, 35.74, 41.17, 44.83, -0.064, -0.864, -0.560, 18:56:11.683, 1590857771683
38, 65.06, 64.39, 65.81, 69.40, -0.064, -0.864, -0.560, 18:56:11.683, 1590857771683
39, 34.38, 33.51, 37.51, 35.58, -0.064, -0.864, -0.560, 18:56:11.699, 1590857771699
40, 24.07, 29.96, 32.08, 30.56, -0.064, -0.864, -0.560, 18:56:11.699, 1590857771699
41, 42.61, 40.43, 38.55, 44.96, -0.064, -0.864, -0.560, 18:56:11.699, 1590857771699
42, 69.32, 60.47, 68.89, 71.62, -0.064, -0.864, -0.560, 18:56:11.699, 1590857771699
43, 37.39, 33.83, 36.26, 36.39, -0.064, -0.864, -0.560, 18:56:11.713, 1590857771713
44, 26.19, 29.42, 28.92, 32.71, -0.064, -0.864, -0.560, 18:56:11.713, 1590857771713
45, 38.67, 41.58, 46.18, 44.85, -0.064, -0.864, -0.560, 18:56:11.728, 1590857771728
46, 72.29, 66.13, 67.76, 70.03, -0.048, -0.880, -0.592, 18:56:11.728, 1590857771728
47, 30.27, 32.27, 36.46, 36.13, -0.048, -0.880, -0.592, 18:56:11.743, 1590857771743
48, 22.84, 22.64, 26.79, 31.34, -0.048, -0.880, -0.592, 18:56:11.743, 1590857771743
49, 42.54, 37.31, 41.14, 42.86, -0.048, -0.880, -0.592, 18:56:11.744, 1590857771744
50, 71.32, 67.01, 62.73, 67.65, -0.048, -0.880, -0.592, 18:56:11.744, 1590857771744
51, 29.92, 33.73, 39.01, 36.42, -0.048, -0.880, -0.592, 18:56:11.758, 1590857771758
52, 28.56, 26.70, 37.66, 36.79, -0.048, -0.880, -0.592, 18:56:11.758, 1590857771758
53, 37.41, 36.76, 40.40, 43.66, -0.048, -0.880, -0.592, 18:56:11.759, 1590857771759
54, 66.90, 63.06, 63.97, 72.31, -0.048, -0.880, -0.592, 18:56:11.759, 1590857771759
55, 35.82, 37.39, 34.85, 41.61, -0.048, -0.880, -0.592, 18:56:11.773, 1590857771773
56, 30.67, 25.93, 26.76, 29.86, -0.048, -0.880, -0.592, 18:56:11.773, 1590857771773
57, 41.08, 39.39, 44.41, 41.11, -0.048, -0.880, -0.592, 18:56:11.788, 1590857771788
58, 68.27, 65.04, 62.07, 74.13, -0.048, -0.880, -0.592, 18:56:11.788, 1590857771788
59, 39.01, 36.56, 35.47, 38.01, -0.048, -0.880, -0.592, 18:56:11.789, 1590857771789
60, 23.04, 29.40, 30.55, 33.43, -0.048, -0.880, -0.592, 18:56:11.789, 1590857771789
61, 41.80, 37.70, 37.28, 46.80, -0.048, -0.880, -0.592, 18:56:11.803, 1590857771803
62, 65.17, 61.67, 62.00, 70.36, -0.048, -0.880, -0.592, 18:56:11.803, 1590857771803
63, 36.96, 30.93, 39.44, 39.97, -0.048, -0.880, -0.592, 18:56:11.818, 1590857771818
64, 25.36, 28.97, 26.83, 34.50, -0.048, -0.880, -0.592, 18:56:11.818, 1590857771818
65, 41.53, 40.43, 42.45, 44.36, -0.048, -0.880, -0.592, 18:56:11.819, 1590857771819
66, 69.92, 57.82, 64.61, 70.72, -0.032, -0.864, -0.656, 18:56:11.819, 1590857771819
67, 35.65, 36.32, 41.64, 44.92, -0.032, -0.864, -0.656, 18:56:11.833, 1590857771833
68, 25.54, 29.73, 24.23, 30.86, -0.032, -0.864, -0.656, 18:56:11.833, 1590857771833
69, 41.19, 37.26, 44.53, 47.06, -0.032, -0.864, -0.656, 18:56:11.848, 1590857771848
70, 69.35, 60.72, 66.19, 72.33, -0.032, -0.864, -0.656, 18:56:11.848, 1590857771848
71, 34.82, 36.49, 38.58, 43.17, -0.032, -0.864, -0.656, 18:56:11.849, 1590857771849
72, 30.42, 24.01, 30.00, 37.99, -0.032, -0.864, -0.656, 18:56:11.849, 1590857771849
73, 39.73, 39.00, 41.16, 43.14, -0.032, -0.864, -0.656, 18:56:11.863, 1590857771863
74, 62.28, 58.43, 60.03, 65.24, -0.032, -0.864, -0.656, 18:56:11.863, 1590857771863
75, 37.61, 32.62, 32.60, 39.79, -0.032, -0.864, -0.656, 18:56:11.878, 1590857771878
76, 32.92, 26.67, 29.44, 30.52, -0.032, -0.864, -0.656, 18:56:11.878, 1590857771878
77, 39.52, 34.78, 33.76, 45.39, -0.032, -0.864, -0.656, 18:56:11.879, 1590857771879
78, 65.38, 56.16, 62.24, 63.16, -0.032, -0.864, -0.656, 18:56:11.879, 1590857771879
79, 35.11, 44.66, 37.29, 48.01, -0.032, -0.864, -0.656, 18:56:11.893, 1590857771893
80, 24.57, 30.57, 29.83, 35.37, -0.032, -0.864, -0.656, 18:56:11.893, 1590857771893
81, 43.30, 41.45, 41.56, 50.45, -0.032, -0.864, -0.656, 18:56:11.909, 1590857771909
82, 66.95, 54.48, 61.22, 65.44, -0.032, -0.864, -0.656, 18:56:11.909, 1590857771909
83, 34.59, 37.16, 36.97, 43.51, -0.032, -0.864, -0.656, 18:56:11.909, 1590857771909
84, 28.48, 33.33, 28.09, 34.18, -0.032, -0.864, -0.656, 18:56:11.909, 1590857771909
85, 40.47, 44.36, 41.60, 45.75, -0.032, -0.864, -0.656, 18:56:11.939, 1590857771939
86, 63.88, 59.86, 57.48, 69.98, 0.016, -0.864, -0.592, 18:56:11.939, 1590857771939
87, 33.83, 46.05, 41.26, 45.08, 0.016, -0.864, -0.592, 18:56:11.940, 1590857771940
88, 30.68, 36.68, 28.97, 37.90, 0.016, -0.864, -0.592, 18:56:11.940, 1590857771940
89, 39.23, 42.89, 42.25, 46.23, 0.016, -0.864, -0.592, 18:56:11.940, 1590857771940
90, 65.90, 61.14, 57.80, 61.87, 0.016, -0.864, -0.592, 18:56:11.940, 1590857771940
91, 36.71, 33.21, 41.93, 44.86, 0.016, -0.864, -0.592, 18:56:11.953, 1590857771953
92, 25.83, 31.58, 39.32, 32.61, 0.016, -0.864, -0.592, 18:56:11.953, 1590857771953
93, 41.22, 38.44, 40.77, 46.43, 0.016, -0.864, -0.592, 18:56:11.968, 1590857771968
94, 65.71, 51.25, 60.86, 67.31, 0.016, -0.864, -0.592, 18:56:11.968, 1590857771968
95, 39.44, 35.12, 33.54, 39.15, 0.016, -0.864, -0.592, 18:56:11.969, 1590857771969
96, 27.43, 27.02, 33.20, 32.31, 0.016, -0.864, -0.592, 18:56:11.969, 1590857771969
97, 42.50, 40.51, 39.20, 44.85, 0.016, -0.864, -0.592, 18:56:11.983, 1590857771983
98, 69.93, 58.82, 59.22, 66.73, 0.016, -0.864, -0.592, 18:56:11.983, 1590857771983
99, 36.60, 37.99, 35.99, 37.35, 0.016, -0.864, -0.592, 18:56:11.998, 1590857771998
100, 26.16, 25.81, 29.26, 31.02, 0.016, -0.864, -0.592, 18:56:11.998, 1590857771998
101, 40.45, 40.55, 39.41, 42.06, 0.016, -0.864, -0.592, 18:56:11.999, 1590857771999
102, 72.12, 61.71, 62.09, 70.06, 0.016, -0.864, -0.592, 18:56:11.999, 1590857771999
103, 40.58, 38.83, 31.79, 39.20, 0.016, -0.864, -0.592, 18:56:12.013, 1590857772013
104, 27.28, 23.38, 27.99, 34.19, 0.016, -0.864, -0.592, 18:56:12.013, 1590857772013
105, 40.93, 40.51, 41.99, 43.50, 0.016, -0.864, -0.592, 18:56:12.060, 1590857772060
106, 71.64, 65.06, 60.20, 66.38, -0.016, -0.880, -0.576, 18:56:12.060, 1590857772060
107, 38.11, 34.00, 37.41, 41.18, -0.016, -0.880, -0.576, 18:56:12.061, 1590857772061
108, 22.60, 27.64, 27.25, 33.52, -0.016, -0.880, -0.576, 18:56:12.061, 1590857772061
109, 44.08, 36.76, 40.66, 47.32, -0.016, -0.880, -0.576, 18:56:12.062, 1590857772062
110, 73.12, 64.39, 61.34, 71.45, -0.016, -0.880, -0.576, 18:56:12.062, 1590857772062
111, 34.23, 36.95, 32.10, 40.50, -0.016, -0.880, -0.576, 18:56:12.063, 1590857772063
112, 25.78, 31.53, 31.23, 36.40, -0.016, -0.880, -0.576, 18:56:12.063, 1590857772063
113, 41.44, 38.04, 41.90, 46.52, -0.016, -0.880, -0.576, 18:56:12.074, 1590857772074
114, 65.47, 56.69, 63.59, 72.90, -0.016, -0.880, -0.576, 18:56:12.074, 1590857772074
115, 37.71, 31.22, 34.91, 41.93, -0.016, -0.880, -0.576, 18:56:12.074, 1590857772074
116, 27.48, 27.03, 30.16, 30.85, -0.016, -0.880, -0.576, 18:56:12.074, 1590857772074
117, 46.88, 43.99, 44.46, 47.70, -0.016, -0.880, -0.576, 18:56:12.105, 1590857772105
118, 71.59, 63.99, 64.46, 69.56, -0.016, -0.880, -0.576, 18:56:12.105, 1590857772105
119, 33.40, 32.66, 33.81, 38.84, -0.016, -0.880, -0.576, 18:56:12.105, 1590857772105
120, 31.12, 24.81, 31.92, 32.88, -0.016, -0.880, -0.576, 18:56:12.105, 1590857772105
121, 40.54, 36.04, 42.25, 48.68, -0.016, -0.880, -0.576, 18:56:12.106, 1590857772106
122, 66.81, 61.53, 58.06, 69.49, -0.016, -0.880, -0.576, 18:56:12.106, 1590857772106
123, 36.46, 36.97, 34.91, 39.55, -0.016, -0.880, -0.576, 18:56:12.107, 1590857772107
124, 23.95, 33.94, 32.71, 33.03, -0.016, -0.880, -0.576, 18:56:12.107, 1590857772107
125, 36.09, 38.44, 38.34, 40.44, -0.016, -0.880, -0.576, 18:56:12.118, 1590857772118
126, 68.03, 62.61, 58.95, 64.96, -0.032, -0.880, -0.576, 18:56:12.118, 1590857772118
127, 36.68, 35.83, 36.26, 40.89, -0.032, -0.880, -0.576, 18:56:12.133, 1590857772133
128, 26.91, 30.28, 31.77, 31.56, -0.032, -0.880, -0.576, 18:56:12.133, 1590857772133
129, 37.42, 39.96, 44.18, 42.52, -0.032, -0.880, -0.576, 18:56:12.148, 1590857772148
130, 68.69, 62.29, 63.49, 64.24, -0.032, -0.880, -0.576, 18:56:12.148, 1590857772148
131, 37.71, 34.41, 39.33, 42.40, -0.032, -0.880, -0.576, 18:56:12.149, 1590857772149
132, 25.17, 26.46, 24.26, 33.05, -0.032, -0.880, -0.576, 18:56:12.149, 1590857772149
133, 37.22, 39.46, 37.57, 41.31, -0.032, -0.880, -0.576, 18:56:12.163, 1590857772163
134, 69.08, 61.64, 58.36, 64.57, -0.032, -0.880, -0.576, 18:56:12.163, 1590857772163
135, 34.09, 32.63, 39.43, 44.96, -0.032, -0.880, -0.576, 18:56:12.178, 1590857772178
136, 25.10, 28.16, 35.03, 34.64, -0.032, -0.880, -0.576, 18:56:12.178, 1590857772178
137, 41.70, 35.12, 39.46, 44.55, -0.032, -0.880, -0.576, 18:56:12.179, 1590857772179
138, 65.42, 61.02, 62.22, 66.93, -0.032, -0.880, -0.576, 18:56:12.179, 1590857772179
139, 37.48, 36.01, 39.06, 44.66, -0.032, -0.880, -0.576, 18:56:12.193, 1590857772193
140, 26.07, 29.55, 25.42, 30.82, -0.032, -0.880, -0.576, 18:56:12.193, 1590857772193
141, 38.91, 41.24, 39.23, 45.59, -0.032, -0.880, -0.576, 18:56:12.208, 1590857772208
142, 65.41, 58.53, 60.45, 64.31, -0.032, -0.880, -0.576, 18:56:12.208, 1590857772208
143, 40.08, 31.62, 34.02, 40.96, -0.032, -0.880, -0.576, 18:56:12.209, 1590857772209
144, 27.44, 29.19, 25.84, 29.47, -0.032, -0.880, -0.576, 18:56:12.209, 1590857772209
145, 40.85, 40.72, 42.10, 44.84, -0.032, -0.880, -0.576, 18:56:12.223, 1590857772223
146, 64.09, 59.50, 56.06, 62.52, -0.064, -0.880, -0.544, 18:56:12.223, 1590857772223
147, 37.08, 38.45, 37.95, 42.16, -0.064, -0.880, -0.544, 18:56:12.239, 1590857772239
148, 29.37, 31.81, 27.24, 36.02, -0.064, -0.880, -0.544, 18:56:12.239, 1590857772239
149, 43.61, 35.52, 39.76, 41.90, -0.064, -0.880, -0.544, 18:56:12.239, 1590857772239
150, 67.48, 59.22, 63.01, 67.81, -0.064, -0.880, -0.544, 18:56:12.239, 1590857772239
151, 35.98, 32.87, 35.73, 39.73, -0.064, -0.880, -0.544, 18:56:12.253, 1590857772253
152, 30.28, 27.94, 26.40, 33.15, -0.064, -0.880, -0.544, 18:56:12.253, 1590857772253
153, 38.23, 41.54, 45.06, 51.16, -0.064, -0.880, -0.544, 18:56:12.285, 1590857772285
154, 70.76, 59.45, 62.89, 71.85, -0.064, -0.880, -0.544, 18:56:12.285, 1590857772285
155, 35.18, 31.82, 34.10, 40.51, -0.064, -0.880, -0.544, 18:56:12.285, 1590857772285
156, 27.44, 25.70, 27.99, 33.71, -0.064, -0.880, -0.544, 18:56:12.285, 1590857772285
157, 44.79, 37.85, 41.97, 45.33, -0.064, -0.880, -0.544, 18:56:12.286, 1590857772286
158, 68.04, 62.02, 61.54, 62.64, -0.064, -0.880, -0.544, 18:56:12.286, 1590857772286
159, 34.69, 37.10, 39.83, 42.34, -0.064, -0.880, -0.544, 18:56:12.287, 1590857772287
160, 27.77, 30.41, 34.82, 32.54, -0.064, -0.880, -0.544, 18:56:12.287, 1590857772287
161, 39.88, 37.67, 39.50, 42.95, -0.064, -0.880, -0.544, 18:56:12.298, 1590857772298
162, 68.42, 61.27, 64.91, 64.34, -0.064, -0.880, -0.544, 18:56:12.298, 1590857772298
163, 38.52, 32.95, 40.12, 36.70, -0.064, -0.880, -0.544, 18:56:12.313, 1590857772313
164, 30.57, 28.98, 34.81, 33.09, -0.064, -0.880, -0.544, 18:56:12.313, 1590857772313
165, 39.28, 35.12, 37.79, 45.37, -0.064, -0.880, -0.544, 18:56:12.328, 1590857772328
166, 67.38, 61.60, 63.05, 65.14, -0.096, -0.880, -0.480, 18:56:12.328, 1590857772328
167, 38.83, 34.21, 36.71, 43.39, -0.096, -0.880, -0.480, 18:56:12.329, 1590857772329
168, 28.63, 24.93, 30.45, 33.62, -0.096, -0.880, -0.480, 18:56:12.329, 1590857772329
169, 38.72, 41.43, 40.33, 46.98, -0.096, -0.880, -0.480, 18:56:12.343, 1590857772343
170, 62.59, 58.82, 56.25, 66.52, -0.096, -0.880, -0.480, 18:56:12.343, 1590857772343
171, 38.49, 36.03, 37.90, 41.56, -0.096, -0.880, -0.480, 18:56:12.358, 1590857772358
172, 28.13, 31.09, 28.19, 34.35, -0.096, -0.880, -0.480, 18:56:12.358, 1590857772358
173, 40.46, 39.96, 39.85, 47.97, -0.096, -0.880, -0.480, 18:56:12.359, 1590857772359
174, 65.57, 58.23, 59.28, 66.52, -0.096, -0.880, -0.480, 18:56:12.359, 1590857772359
175, 35.36, 36.20, 35.78, 46.29, -0.096, -0.880, -0.480, 18:56:12.373, 1590857772373
176, 27.08, 34.46, 29.52, 36.55, -0.096, -0.880, -0.480, 18:56:12.373, 1590857772373
177, 38.54, 40.63, 45.46, 44.08, -0.096, -0.880, -0.480, 18:56:12.388, 1590857772388
178, 66.75, 62.63, 57.27, 66.07, -0.096, -0.880, -0.480, 18:56:12.388, 1590857772388
179, 36.82, 32.53, 39.80, 42.16, -0.096, -0.880, -0.480, 18:56:12.389, 1590857772389
180, 29.12, 29.80, 31.83, 36.93, -0.096, -0.880, -0.480, 18:56:12.389, 1590857772389
181, 38.38, 34.59, 42.73, 47.47, -0.096, -0.880, -0.480, 18:56:12.403, 1590857772403
182, 65.66, 56.94, 62.25, 65.34, -0.096, -0.880, -0.480, 18:56:12.403, 1590857772403
183, 36.49, 33.21, 39.95, 42.19, -0.096, -0.880, -0.480, 18:56:12.418, 1590857772418
184, 27.32, 31.67, 34.91, 37.79, -0.096, -0.880, -0.480, 18:56:12.418, 1590857772418
185, 40.19, 40.37, 38.36, 48.65, -0.096, -0.880, -0.480, 18:56:12.419, 1590857772419
186, 63.98, 59.15, 55.99, 61.79, -0.144, -0.912, -0.400, 18:56:12.419, 1590857772419
187, 33.03, 37.99, 36.40, 41.95, -0.144, -0.912, -0.400, 18:56:12.433, 1590857772433
188, 28.30, 27.57, 28.58, 32.16, -0.144, -0.912, -0.400, 18:56:12.433, 1590857772433
189, 37.46, 41.37, 43.28, 45.30, -0.144, -0.912, -0.400, 18:56:12.448, 1590857772448
190, 66.16, 60.06, 60.98, 66.49, -0.144, -0.912, -0.400, 18:56:12.448, 1590857772448
191, 33.98, 37.89, 34.58, 39.69, -0.144, -0.912, -0.400, 18:56:12.449, 1590857772449
192, 31.46, 30.55, 31.98, 31.45, -0.144, -0.912, -0.400, 18:56:12.449, 1590857772449
193, 40.42, 41.88, 39.45, 41.44, -0.144, -0.912, -0.400, 18:56:12.463, 1590857772463
194, 62.70, 55.81, 58.57, 63.36, -0.144, -0.912, -0.400, 18:56:12.463, 1590857772463
195, 40.76, 38.52, 38.89, 47.31, -0.144, -0.912, -0.400, 18:56:12.478, 1590857772478
196, 29.35, 31.54, 27.83, 38.26, -0.144, -0.912, -0.400, 18:56:12.478, 1590857772478
197, 40.18, 42.45, 40.73, 44.94, -0.144, -0.912, -0.400, 18:56:12.479, 1590857772479
198, 65.47, 56.14, 60.19, 67.97, -0.144, -0.912, -0.400, 18:56:12.479, 1590857772479
199, 38.09, 35.54, 35.01, 40.20, -0.144, -0.912, -0.400, 18:56:12.494, 1590857772494
200, 23.54, 26.78, 30.88, 31.47, -0.144, -0.912, -0.400, 18:56:12.494, 1590857772494
0, 2.03, 12.40, 2.86, 7.83, -0.144, -0.912, -0.400, 18:56:12.494, 1590857772494
1, 23.84, 25.68, 23.26, 28.57, -0.144, -0.912, -0.400, 18:56:12.508, 1590857772508
2, -0.87, 1.27, 1.02, -0.88, -0.144, -0.912, -0.400, 18:56:12.508, 1590857772508
3, -4.77, -0.80, -0.04, -0.85, -0.144, -0.912, -0.400, 18:56:12.523, 1590857772523
4, 4.70, 7.86, 10.39, 12.94, -0.144, -0.912, -0.400, 18:56:12.523, 1590857772523
5, 28.68, 27.93, 30.03, 27.00, -0.144, -0.912, -0.400, 18:56:12.524, 1590857772524
6, 3.55, 4.30, -1.16, 0.54, -0.160, -0.928, -0.352, 18:56:12.524, 1590857772524
7, -5.77, -1.02, -2.13, -4.78, -0.160, -0.928, -0.352, 18:56:12.554, 1590857772554
8, 3.65, 10.66, 8.22, 4.00, -0.160, -0.928, -0.352, 18:56:12.554, 1590857772554
9, 30.95, 30.56, 23.96, 26.14, -0.160, -0.928, -0.352, 18:56:12.555, 1590857772555
10, 2.09, 9.59, 0.80, 5.58, -0.160, -0.928, -0.352, 18:56:12.555, 1590857772555
11, -8.06, -2.57, -1.00, 2.67, -0.160, -0.928, -0.352, 18:56:12.555, 1590857772555
12, 1.43, 9.74, 4.94, 11.45, -0.160, -0.928, -0.352, 18:56:12.555, 1590857772555
13, 25.47, 28.10, 29.80, 28.25, -0.160, -0.928, -0.352, 18:56:12.568, 1590857772568
14, 5.00, 5.80, 6.30, 7.91, -0.160, -0.928, -0.352, 18:56:12.568, 1590857772568
15, -4.82, -3.65, -2.97, 0.74, -0.160, -0.928, -0.352, 18:56:12.600, 1590857772600
16, 3.92, 8.43, 4.58, 7.47, -0.160, -0.928, -0.352, 18:56:12.600, 1590857772600
17, 31.77, 30.60, 23.82, 27.17, -0.160, -0.928, -0.352, 18:56:12.600, 1590857772600
18, 0.25, 7.72, 0.65, 5.34, -0.160, -0.928, -0.352, 18:56:12.600, 1590857772600
19, -7.81, -0.01, -0.13, -3.54, -0.160, -0.928, -0.352, 18:56:12.601, 1590857772601
20, 5.19, 9.36, 1.01, 8.48, -0.160, -0.928, -0.352, 18:56:12.601, 1590857772601
21, 28.84, 32.43, 22.21, 31.22, -0.160, -0.928, -0.352, 18:56:12.602, 1590857772602
22, -4.06, 6.26, -3.38, 3.96, -0.160, -0.928, -0.352, 18:56:12.602, 1590857772602
23, -9.16, -0.22, -9.23, -1.62, -0.160, -0.928, -0.352, 18:56:12.613, 1590857772613
24, 6.59, 11.76, 8.54, 7.62, -0.160, -0.928, -0.352, 18:56:12.613, 1590857772613
25, 25.20, 24.49, 31.54, 31.33, -0.160, -0.928, -0.352, 18:56:12.628, 1590857772628
26, -0.87, 6.23, 2.08, 5.15, -0.176, -0.928, -0.352, 18:56:12.628, 1590857772628
27, -4.24, 2.01, -2.87, 0.77, -0.176, -0.928, -0.352, 18:56:12.643, 1590857772643
28, 2.19, 8.66, 4.69, 11.73, -0.176, -0.928, -0.352, 18:56:12.644, 1590857772644
29, 28.60, 27.35, 21.46, 28.34, -0.176, -0.928, -0.352, 18:56:12.644, 1590857772644
30, -1.89, 3.78, -3.05, 3.49, -0.176, -0.928, -0.352, 18:56:12.644, 1590857772644
31, -8.89, -0.82, -0.47, -1.32, -0.176, -0.928, -0.352, 18:56:12.658, 1590857772658
32, 0.86, 4.58, 0.20, 11.26, -0.176, -0.928, -0.352, 18:56:12.658, 1590857772658
33, 27.28, 32.63, 23.35, 32.43, -0.176, -0.928, -0.352, 18:56:12.673, 1590857772673
34, -1.24, 3.46, 4.98, 2.77, -0.176, -0.928, -0.352, 18:56:12.673, 1590857772673
35, -7.21, 0.55, -1.08, 0.81, -0.176, -0.928, -0.352, 18:56:12.674, 1590857772674
36, 2.21, 7.37, 2.05, 11.12, -0.176, -0.928, -0.352, 18:56:12.674, 1590857772674
37, 27.81, 33.00, 25.46, 27.29, -0.176, -0.928, -0.352, 18:56:12.688, 1590857772688
38, -1.37, 0.77, 1.18, 1.62, -0.176, -0.928, -0.352, 18:56:12.688, 1590857772688
39, -4.39, -3.94, -7.36, 0.26, -0.176, -0.928, -0.352, 18:56:12.704, 1590857772704
40, 10.67, 9.83, 4.59, 7.82, -0.176, -0.928, -0.352, 18:56:12.704, 1590857772704
41, 25.18, 27.29, 20.95, 27.99, -0.176, -0.928, -0.352, 18:56:12.704, 1590857772704
42, -4.07, 9.61, -2.71, 6.13, -0.176, -0.928, -0.352, 18:56:12.704, 1590857772704
43, -5.68, 1.58, -1.28, -1.68, -0.176, -0.928, -0.352, 18:56:12.718, 1590857772718
44, 4.81, 11.05, 5.09, 10.01, -0.176, -0.928, -0.352, 18:56:12.718, 1590857772718
45, 26.81, 29.25, 23.05, 29.57, -0.176, -0.928, -0.352, 18:56:12.734, 1590857772734
46, -3.36, 7.26, 5.87, 6.20, -0.192, -0.944, -0.400, 18:56:12.734, 1590857772734
47, -4.87, 0.85, -2.27, 0.70, -0.192, -0.944, -0.400, 18:56:12.734, 1590857772734
48, 8.45, 6.25, 2.27, 5.71, -0.192, -0.944, -0.400, 18:56:12.734, 1590857772734
49, 33.95, 30.84, 27.14, 34.47, -0.192, -0.944, -0.400, 18:56:12.748, 1590857772748
50, 6.28, 6.22, -3.47, -0.42, -0.192, -0.944, -0.400, 18:56:12.748, 1590857772748
51, -6.31, 0.46, -1.51, -1.45, -0.192, -0.944, -0.400, 18:56:12.763, 1590857772763
52, 2.75, 10.16, 6.51, 8.19, -0.192, -0.944, -0.400, 18:56:12.763, 1590857772763
53, 29.58, 30.69, 24.19, 35.24, -0.192, -0.944, -0.400, 18:56:12.764, 1590857772764
54, -0.05, 3.80, 0.34, 8.20, -0.192, -0.944, -0.400, 18:56:12.764, 1590857772764
55, -8.92, -0.12, -0.23, -0.60, -0.192, -0.944, -0.400, 18:56:12.778, 1590857772778
56, 1.85, 9.40, 4.71, 4.68, -0.192, -0.944, -0.400, 18:56:12.778, 1590857772778
57, 29.28, 32.61, 25.97, 24.79, -0.192, -0.944, -0.400, 18:56:12.793, 1590857772793
58, 2.67, 1.36, -1.75, 1.85, -0.192, -0.944, -0.400, 18:56:12.793, 1590857772793
59, -10.27, -0.41, -0.68, -1.28, -0.192, -0.944, -0.400, 18:56:12.809, 1590857772809
60, 5.07, 10.38, 6.93, 9.06, -0.192, -0.944, -0.400, 18:56:12.809, 1590857772809
61, 32.95, 33.30, 26.76, 34.65, -0.192, -0.944, -0.400, 18:56:12.809, 1590857772809
62, -1.48, 6.89, -0.63, 1.59, -0.192, -0.944, -0.400, 18:56:12.809, 1590857772809
63, -4.98, -2.86, -7.00, -2.00, -0.192, -0.944, -0.400, 18:56:12.824, 1590857772824
64, 6.49, 12.23, 4.29, 8.99, -0.192, -0.944, -0.400, 18:56:12.824, 1590857772824
65, 30.75, 34.52, 26.49, 28.33, -0.192, -0.944, -0.400, 18:56:12.824, 1590857772824
66, -1.85, 8.30, 1.49, 2.29, -0.160, -0.864, -0.400, 18:56:12.824, 1590857772824
67, -9.45, -4.67, 1.11, -3.21, -0.160, -0.864, -0.400, 18:56:12.838, 1590857772838
68, 3.59, 8.50, 4.53, 5.97, -0.160, -0.864, -0.400, 18:56:12.838, 1590857772838
69, 32.64, 34.29, 27.74, 33.65, -0.160, -0.864, -0.400, 18:56:12.854, 1590857772854
70, 1.32, 7.10, 3.14, 4.09, -0.160, -0.864, -0.400, 18:56:12.854, 1590857772854
71, -5.57, 0.89, -5.92, -7.82, -0.160, -0.864, -0.400, 18:56:12.855, 1590857772855
72, 4.20, 7.98, 5.64, 4.79, -0.160, -0.864, -0.400, 18:56:12.855, 1590857772855
73, 36.65, 35.04, 33.55, 33.83, -0.160, -0.864, -0.400, 18:56:12.868, 1590857772868
74, -2.66, 8.22, 2.81, 2.25, -0.160, -0.864, -0.400, 18:56:12.868, 1590857772868
75, -9.26, -3.28, -4.64, -7.64, -0.160, -0.864, -0.400, 18:56:12.883, 1590857772883
76, 1.85, 12.17, 7.93, 10.28, -0.160, -0.864, -0.400, 18:56:12.883, 1590857772883
77, 32.31, 34.01, 29.51, 35.97, -0.160, -0.864, -0.400, 18:56:12.898, 1590857772898
78, -4.91, 1.16, 4.60, 3.39, -0.160, -0.864, -0.400, 18:56:12.898, 1590857772898
79, -10.56, -1.68, -8.30, -4.14, -0.160, -0.864, -0.400, 18:56:12.899, 1590857772899
80, 4.32, 9.46, 4.65, 9.67, -0.160, -0.864, -0.400, 18:56:12.899, 1590857772899
81, 29.89, 35.28, 29.20, 30.43, -0.160, -0.864, -0.400, 18:56:12.931, 1590857772931
82, 2.84, -0.53, 0.52, 4.81, -0.160, -0.864, -0.400, 18:56:12.931, 1590857772931
83, -13.65, -2.29, -12.42, -6.26, -0.160, -0.864, -0.400, 18:56:12.931, 1590857772931
84, 8.79, 6.73, 2.85, 9.74, -0.160, -0.864, -0.400, 18:56:12.931, 1590857772931
85, 32.90, 35.50, 30.21, 32.81, -0.160, -0.864, -0.400, 18:56:12.932, 1590857772932
86, -3.91, 5.80, -1.13, 4.82, -0.160, -0.784, -0.304, 18:56:12.932, 1590857772932
87, -11.73, -1.36, -9.08, -2.70, -0.160, -0.784, -0.304, 18:56:12.933, 1590857772933
88, 4.36, 9.64, 5.24, 8.90, -0.160, -0.784, -0.304, 18:56:12.933, 1590857772933
89, 27.43, 33.36, 27.19, 33.70, -0.160, -0.784, -0.304, 18:56:12.943, 1590857772943
90, 1.15, 1.90, 1.08, 6.83, -0.160, -0.784, -0.304, 18:56:12.943, 1590857772943
91, -7.19, -5.73, -2.07, -5.74, -0.160, -0.784, -0.304, 18:56:12.958, 1590857772958
92, 6.64, 10.53, 6.33, 7.40, -0.160, -0.784, -0.304, 18:56:12.958, 1590857772958
93, 34.01, 31.93, 23.87, 30.62, -0.160, -0.784, -0.304, 18:56:12.973, 1590857772973
94, 0.50, -1.50, -0.16, 4.22, -0.160, -0.784, -0.304, 18:56:12.973, 1590857772973
95, -8.86, -7.94, -4.08, -5.70, -0.160, -0.784, -0.304, 18:56:12.988, 1590857772988
96, 11.08, 10.33, 13.34, 7.37, -0.160, -0.784, -0.304, 18:56:12.988, 1590857772988
97, 30.85, 33.88, 27.67, 27.66, -0.160, -0.784, -0.304, 18:56:12.989, 1590857772989
98, -5.16, 1.56, -0.82, 1.07, -0.160, -0.784, -0.304, 18:56:12.989, 1590857772989
99, -10.45, -1.22, -4.43, -6.33, -0.160, -0.784, -0.304, 18:56:13.004, 1590857773004
100, 9.51, 12.41, 4.99, 10.33, -0.160, -0.784, -0.304, 18:56:13.004, 1590857773004
101, 35.43, 33.86, 27.93, 28.35, -0.160, -0.784, -0.304, 18:56:13.005, 1590857773005
102, 1.36, 5.56, 0.14, -2.11, -0.160, -0.784, -0.304, 18:56:13.005, 1590857773005
103, -9.79, -2.68, -10.69, -2.95, -0.160, -0.784, -0.304, 18:56:13.018, 1590857773018
104, 5.38, 5.65, 4.47, 4.18, -0.160, -0.784, -0.304, 18:56:13.018, 1590857773018
105, 33.98, 32.90, 27.24, 30.68, -0.160, -0.784, -0.304, 18:56:13.034, 1590857773034
106, 1.21, 6.49, 3.33, 8.17, -0.144, -0.832, -0.128, 18:56:13.034, 1590857773034
107, -5.18, -0.45, 0.90, -3.22, -0.144, -0.832, -0.128, 18:56:13.034, 1590857773034
108, 6.40, 10.54, 4.21, 7.23, -0.144, -0.832, -0.128, 18:56:13.034, 1590857773034
109, 29.52, 34.71, 29.39, 30.50, -0.144, -0.832, -0.128, 18:56:13.048, 1590857773048
110, -7.27, 4.22, 0.27, -0.44, -0.144, -0.832, -0.128, 18:56:13.048, 1590857773048
111, -11.46, 0.77, -5.60, -3.16, -0.144, -0.832, -0.128, 18:56:13.063, 1590857773063
112, 3.55, 12.59, 8.11, 13.65, -0.144, -0.832, -0.128, 18:56:13.063, 1590857773063
113, 34.07, 33.55, 26.96, 28.03, -0.144, -0.832, -0.128, 18:56:13.064, 1590857773064
114, -2.43, 3.20, 0.64, 3.13, -0.144, -0.832, -0.128, 18:56:13.064, 1590857773064
115, -9.55, -4.53, -6.79, 1.44, -0.144, -0.832, -0.128, 18:56:13.078, 1590857773078
116, 5.46, 7.68, 3.40, 11.23, -0.144, -0.832, -0.128, 18:56:13.078, 1590857773078
117, 32.97, 29.72, 29.62, 27.46, -0.144, -0.832, -0.128, 18:56:13.093, 1590857773093
118, 2.47, 1.80, 5.28, 5.72, -0.144, -0.832, -0.128, 18:56:13.093, 1590857773093
119, -7.60, -5.91, -5.35, -4.18, -0.144, -0.832, -0.128, 18:56:13.094, 1590857773094
120, 4.81, 10.73, 4.09, 7.42, -0.144, -0.832, -0.128, 18:56:13.094, 1590857773094
121, 30.17, 33.02, 29.71, 32.44, -0.144, -0.832, -0.128, 18:56:13.108, 1590857773108
122, 0.52, -2.77, -5.26, 3.90, -0.144, -0.832, -0.128, 18:56:13.108, 1590857773108
123, -10.66, -7.53, -7.46, -3.59, -0.144, -0.832, -0.128, 18:56:13.124, 1590857773124
124, 1.65, 10.16, 7.63, 9.16, -0.144, -0.832, -0.128, 18:56:13.124, 1590857773124
125, 24.80, 34.93, 31.66, 26.74, -0.144, -0.832, -0.128, 18:56:13.125, 1590857773125
126, -4.16, 0.68, 3.01, 1.27, -0.112, -0.928, -0.016, 18:56:13.125, 1590857773125
127, -8.72, -4.52, -3.75, -2.87, -0.112, -0.928, -0.016, 18:56:13.155, 1590857773155
128, 1.91, 3.84, 6.50, 4.88, -0.112, -0.928, -0.016, 18:56:13.155, 1590857773155
129, 32.27, 26.17, 20.77, 26.21, -0.112, -0.928, -0.016, 18:56:13.155, 1590857773155
130, 1.18, 6.68, -3.19, 6.62, -0.112, -0.928, -0.016, 18:56:13.155, 1590857773155
131, -7.23, -2.11, -4.27, -0.99, -0.112, -0.928, -0.016, 18:56:13.156, 1590857773156
132, 1.23, 10.23, 5.54, 6.00, -0.112, -0.928, -0.016, 18:56:13.156, 1590857773156
133, 32.12, 32.67, 27.18, 28.71, -0.112, -0.928, -0.016, 18:56:13.168, 1590857773168
134, 0.30, 3.55, 3.14, 4.99, -0.112, -0.928, -0.016, 18:56:13.168, 1590857773168
135, -8.21, -2.15, -8.15, -4.59, -0.112, -0.928, -0.016, 18:56:13.184, 1590857773184
136, 7.49, 8.91, 5.51, 7.84, -0.112, -0.928, -0.016, 18:56:13.184, 1590857773184
137, 21.85, 27.16, 21.16, 28.05, -0.112, -0.928, -0.016, 18:56:13.184, 1590857773184
138, 3.51, 6.79, 4.39, 3.16, -0.112, -0.928, -0.016, 18:56:13.184, 1590857773184
139, -6.41, 0.33, -1.62, -4.00, -0.112, -0.928, -0.016, 18:56:13.214, 1590857773214
140, 4.81, 6.65, 7.01, 1.38, -0.112, -0.928, -0.016, 18:56:13.214, 1590857773214
141, 29.98, 31.65, 20.19, 21.58, -0.112, -0.928, -0.016, 18:56:13.215, 1590857773215
142, -0.14, 4.76, 2.28, 3.93, -0.112, -0.928, -0.016, 18:56:13.215, 1590857773215
143, -5.75, -2.20, -2.33, -5.08, -0.112, -0.928, -0.016, 18:56:13.215, 1590857773215
144, 1.12, 9.05, 4.19, 5.69, -0.112, -0.928, -0.016, 18:56:13.215, 1590857773215
145, 24.43, 26.93, 20.91, 25.95, -0.112, -0.928, -0.016, 18:56:13.228, 1590857773228
146, 0.62, 9.32, 5.23, 5.42, -0.032, -0.992, 0.096, 18:56:13.228, 1590857773228
147, -9.45, 0.28, -4.56, -3.70, -0.032, -0.992, 0.096, 18:56:13.243, 1590857773243
148, 1.82, 11.98, 8.91, 8.79, -0.032, -0.992, 0.096, 18:56:13.243, 1590857773243
149, 25.87, 28.64, 23.70, 24.74, -0.032, -0.992, 0.096, 18:56:13.244, 1590857773244
150, -1.10, 6.58, 2.80, 2.69, -0.032, -0.992, 0.096, 18:56:13.244, 1590857773244
151, -5.94, 1.96, -0.54, 0.49, -0.032, -0.992, 0.096, 18:56:13.258, 1590857773258
152, 4.39, 9.25, -1.50, 2.77, -0.032, -0.992, 0.096, 18:56:13.258, 1590857773258
153, 28.05, 24.69, 26.34, 26.01, -0.032, -0.992, 0.096, 18:56:13.274, 1590857773274
154, -2.12, 3.53, 3.23, 8.21, -0.032, -0.992, 0.096, 18:56:13.274, 1590857773274
155, -7.07, -1.42, -7.84, 3.80, -0.032, -0.992, 0.096, 18:56:13.275, 1590857773275
156, -0.34, 8.06, 1.40, 8.31, -0.032, -0.992, 0.096, 18:56:13.275, 1590857773275
157, 22.58, 23.29, 27.18, 23.61, -0.032, -0.992, 0.096, 18:56:13.288, 1590857773288
158, 2.16, 3.84, 3.35, 5.06, -0.032, -0.992, 0.096, 18:56:13.288, 1590857773288
159, -4.03, 0.09, -1.80, 5.84, -0.032, -0.992, 0.096, 18:56:13.303, 1590857773303
160, -1.69, 12.33, 6.13, 8.79, -0.032, -0.992, 0.096, 18:56:13.303, 1590857773303
161, 25.37, 27.40, 26.18, 28.10, -0.032, -0.992, 0.096, 18:56:13.304, 1590857773304
162, 2.95, 6.14, 1.92, 5.25, -0.032, -0.992, 0.096, 18:56:13.304, 1590857773304
163, -4.58, -0.28, -4.78, -0.48, -0.032, -0.992, 0.096, 18:56:13.318, 1590857773318
164, 1.22, 4.30, 5.07, 8.28, -0.032, -0.992, 0.096, 18:56:13.318, 1590857773318
165, 27.96, 25.30, 24.45, 27.49, -0.032, -0.992, 0.096, 18:56:13.334, 1590857773334
166, 1.84, 4.84, 3.78, 7.13, 0.016, -1.120, 0.192, 18:56:13.334, 1590857773334
167, -3.47, 2.00, -6.83, 2.51, 0.016, -1.120, 0.192, 18:56:13.335, 1590857773335
168, 5.23, 8.82, 7.34, 2.44, 0.016, -1.120, 0.192, 18:56:13.335, 1590857773335
169, 26.47, 27.09, 23.66, 25.39, 0.016, -1.120, 0.192, 18:56:13.348, 1590857773348
170, 2.80, 10.02, 1.48, 8.58, 0.016, -1.120, 0.192, 18:56:13.348, 1590857773348
171, -12.02, -0.06, -1.92, 1.84, 0.016, -1.120, 0.192, 18:56:13.363, 1590857773363
172, 1.78, 8.44, 7.43, 5.57, 0.016, -1.120, 0.192, 18:56:13.363, 1590857773363
173, 26.31, 26.38, 23.36, 23.74, 0.016, -1.120, 0.192, 18:56:13.364, 1590857773364
174, 2.53, 6.02, 1.42, 6.78, 0.016, -1.120, 0.192, 18:56:13.364, 1590857773364
175, -6.29, 2.50, -0.74, -0.50, 0.016, -1.120, 0.192, 18:56:13.378, 1590857773378
176, 4.20, 5.11, 0.51, 6.36, 0.016, -1.120, 0.192, 18:56:13.378, 1590857773378
177, 21.97, 28.26, 25.74, 28.47, 0.016, -1.120, 0.192, 18:56:13.393, 1590857773393
178, 1.50, 15.03, 2.67, 8.44, 0.016, -1.120, 0.192, 18:56:13.393, 1590857773393
179, -7.58, 2.52, -5.19, -0.31, 0.016, -1.120, 0.192, 18:56:13.394, 1590857773394
180, 4.90, 11.15, 4.87, 4.93, 0.016, -1.120, 0.192, 18:56:13.394, 1590857773394
181, 21.83, 23.83, 20.39, 23.58, 0.016, -1.120, 0.192, 18:56:13.408, 1590857773408
182, 4.02, 3.57, 1.35, 4.41, 0.016, -1.120, 0.192, 18:56:13.408, 1590857773408
183, -7.28, 0.95, 0.32, -0.70, 0.016, -1.120, 0.192, 18:56:13.423, 1590857773423
184, 2.63, 9.09, 7.29, 8.02, 0.016, -1.120, 0.192, 18:56:13.423, 1590857773423
185, 29.92, 27.66, 20.16, 26.18, 0.016, -1.120, 0.192, 18:56:13.424, 1590857773424
186, -1.79, 4.95, 4.06, 3.35, 0.032, -1.216, 0.192, 18:56:13.424, 1590857773424
187, -6.64, -1.96, -3.13, 0.75, 0.032, -1.216, 0.192, 18:56:13.438, 1590857773438
188, 2.04, 9.44, 6.84, 6.96, 0.032, -1.216, 0.192, 18:56:13.438, 1590857773438
189, 29.11, 30.14, 26.18, 31.23, 0.032, -1.216, 0.192, 18:56:13.454, 1590857773454
190, -0.77, 6.04, 1.98, 6.82, 0.032, -1.216, 0.192, 18:56:13.454, 1590857773454
191, -3.14, 1.75, -6.47, -2.69, 0.032, -1.216, 0.192, 18:56:13.454, 1590857773454
192, 0.11, 8.34, 2.70, 3.87, 0.032, -1.216, 0.192, 18:56:13.454, 1590857773454
193, 27.27, 30.88, 23.60, 28.59, 0.032, -1.216, 0.192, 18:56:13.468, 1590857773468
194, -0.49, 6.15, 1.68, 2.90, 0.032, -1.216, 0.192, 18:56:13.468, 1590857773468
195, -8.38, 2.29, -3.54, 0.65, 0.032, -1.216, 0.192, 18:56:13.483, 1590857773483
196, 1.88, 8.85, 1.34, 7.70, 0.032, -1.216, 0.192, 18:56:13.483, 1590857773483
197, 25.89, 26.82, 20.27, 20.87, 0.032, -1.216, 0.192, 18:56:13.484, 1590857773484
198, 3.91, 7.05, 8.16, 7.08, 0.032, -1.216, 0.192, 18:56:13.484, 1590857773484
199, -3.54, 2.79, -3.00, -0.22, 0.032, -1.216, 0.192, 18:56:13.498, 1590857773498
200, 0.38, 5.69, 5.00, 7.64, 0.032, -1.216, 0.192, 18:56:13.498, 1590857773498
0, 28.01, 30.60, 26.25, 28.91, 0.032, -1.216, 0.192, 18:56:13.499, 1590857773499
1, -0.52, 5.72, 4.64, 4.40, 0.032, -1.216, 0.192, 18:56:13.546, 1590857773546
2, -4.90, -7.42, -4.88, -2.75, 0.032, -1.216, 0.192, 18:56:13.546, 1590857773546
3, 6.53, 5.13, 7.17, 7.15, 0.032, -1.216, 0.192, 18:56:13.547, 1590857773547
4, 20.36, 22.14, 21.91, 28.66, 0.032, -1.216, 0.192, 18:56:13.547, 1590857773547
5, -1.34, 7.20, 1.16, 3.99, 0.032, -1.216, 0.192, 18:56:13.547, 1590857773547
6, -4.80, -0.89, -11.91, 0.25, 0.032, -1.104, 0.048, 18:56:13.547, 1590857773547
7, 3.05, 9.41, 7.14, 8.27, 0.032, -1.104, 0.048, 18:56:13.547, 1590857773547
8, 25.61, 28.97, 26.67, 23.85, 0.032, -1.104, 0.048, 18:56:13.547, 1590857773547
9, 2.77, 10.52, 2.72, 1.92, 0.032, -1.104, 0.048, 18:56:13.558, 1590857773558
10, -7.28, -4.93, -1.91, -6.43, 0.032, -1.104, 0.048, 18:56:13.558, 1590857773558
11, 2.10, 10.30, 4.91, 8.01, 0.032, -1.104, 0.048, 18:56:13.559, 1590857773559
12, 25.61, 28.34, 23.42, 27.77, 0.032, -1.104, 0.048, 18:56:13.559, 1590857773559
13, -0.45, 7.28, 6.06, 5.82, 0.032, -1.104, 0.048, 18:56:13.573, 1590857773573
14, -11.13, -4.89, -2.88, 0.43, 0.032, -1.104, 0.048, 18:56:13.573, 1590857773573
15, 7.06, 7.13, 2.28, 9.48, 0.032, -1.104, 0.048, 18:56:13.588, 1590857773588
16, 31.36, 27.82, 21.80, 31.13, 0.032, -1.104, 0.048, 18:56:13.588, 1590857773588
17, -2.18, 6.45, 8.64, 3.99, 0.032, -1.104, 0.048, 18:56:13.589, 1590857773589
18, -10.80, 0.29, -3.93, -2.14, 0.032, -1.104, 0.048, 18:56:13.589, 1590857773589
19, 9.74, 6.37, 3.97, 7.89, 0.032, -1.104, 0.048, 18:56:13.603, 1590857773603
20, 28.85, 24.84, 25.97, 24.91, 0.032, -1.104, 0.048, 18:56:13.603, 1590857773603
21, 5.89, 7.14, 5.53, 8.76, 0.032, -1.104, 0.048, 18:56:13.619, 1590857773619
22, -7.70, 4.31, -0.75, -2.02, 0.032, -1.104, 0.048, 18:56:13.619, 1590857773619
23, 6.20, 11.25, 1.68, 12.27, 0.032, -1.104, 0.048, 18:56:13.620, 1590857773620
24, 30.19, 29.19, 22.84, 27.28, 0.032, -1.104, 0.048, 18:56:13.620, 1590857773620
25, 1.12, 6.48, 1.48, 3.37, 0.032, -1.104, 0.048, 18:56:13.633, 1590857773633
26, -13.61, -0.54, -5.46, 2.73, 0.032, -1.104, 0.016, 18:56:13.633, 1590857773633
27, 4.49, 9.61, 4.12, 11.20, 0.032, -1.104, 0.016, 18:56:13.648, 1590857773648
28, 27.55, 29.68, 21.99, 27.53, 0.032, -1.104, 0.016, 18:56:13.648, 1590857773648
29, 3.31, 6.41, 4.21, 3.02, 0.032, -1.104, 0.016, 18:56:13.649, 1590857773649
30, -8.45, -1.40, -5.06, 0.36, 0.032, -1.104, 0.016, 18:56:13.649, 1590857773649
31, 3.71, 11.80, -0.33, 12.39, 0.032, -1.104, 0.016, 18:56:13.663, 1590857773663
32, 29.19, 27.98, 27.08, 30.84, 0.032, -1.104, 0.016, 18:56:13.663, 1590857773663
33, 2.60, 7.93, 6.84, 6.17, 0.032, -1.104, 0.016, 18:56:13.678, 1590857773678
34, -6.25, -4.65, 0.97, 3.55, 0.032, -1.104, 0.016, 18:56:13.678, 1590857773678
35, 10.90, 12.44, 3.32, 10.12, 0.032, -1.104, 0.016, 18:56:13.679, 1590857773679
36, 28.26, 32.28, 26.81, 25.04, 0.032, -1.104, 0.016, 18:56:13.679, 1590857773679
37, 5.16, 11.42, 2.23, 3.22, 0.032, -1.104, 0.016, 18:56:13.710, 1590857773710
38, -8.94, 6.41, -9.01, -7.87, 0.032, -1.104, 0.016, 18:56:13.710, 1590857773710
39, -1.52, 8.06, 9.76, 7.80, 0.032, -1.104, 0.016, 18:56:13.710, 1590857773710
40, 32.97, 27.23, 25.25, 29.15, 0.032, -1.104, 0.016, 18:56:13.710, 1590857773710
41, 1.88, 5.94, 2.84, 7.22, 0.032, -1.104, 0.016, 18:56:13.711, 1590857773711
42, -6.86, -3.23, -1.12, -0.45, 0.032, -1.104, 0.016, 18:56:13.711, 1590857773711
43, 2.58, 5.48, 2.54, 9.38, 0.032, -1.104, 0.016, 18:56:13.723, 1590857773723
44, 28.00, 29.58, 24.52, 26.33, 0.032, -1.104, 0.016, 18:56:13.723, 1590857773723
45, 2.38, 5.99, 1.77, 6.68, 0.032, -1.104, 0.016, 18:56:13.738, 1590857773738
46, -8.50, 3.72, -4.49, -1.19, 0.000, -1.072, 0.096, 18:56:13.738, 1590857773738
47, 3.20, 9.52, 6.13, 5.50, 0.000, -1.072, 0.096, 18:56:13.740, 1590857773740
48, 23.09, 27.92, 25.60, 21.94, 0.000, -1.072, 0.096, 18:56:13.740, 1590857773740
49, -4.70, 3.90, 0.65, 5.51, 0.000, -1.072, 0.096, 18:56:13.753, 1590857773753
50, -10.79, -3.67, -1.81, -2.95, 0.000, -1.072, 0.096, 18:56:13.753, 1590857773753
51, 7.34, 6.21, 3.97, 11.87, 0.000, -1.072, 0.096, 18:56:13.768, 1590857773768
52, 23.22, 26.96, 25.72, 23.48, 0.000, -1.072, 0.096, 18:56:13.768, 1590857773768
53, -0.86, 5.28, 1.63, 1.46, 0.000, -1.072, 0.096, 18:56:13.769, 1590857773769
54, -11.20, 2.00, -5.13, -4.81, 0.000, -1.072, 0.096, 18:56:13.769, 1590857773769
55, 8.16, 7.93, 1.21, 5.34, 0.000, -1.072, 0.096, 18:56:13.783, 1590857773783
56, 24.40, 26.91, 24.68, 25.26, 0.000, -1.072, 0.096, 18:56:13.783, 1590857773783
57, 4.09, 9.45, 3.96, 3.92, 0.000, -1.072, 0.096, 18:56:13.799, 1590857773799
58, -8.87, -2.89, -4.74, -3.48, 0.000, -1.072, 0.096, 18:56:13.799, 1590857773799
59, -1.72, 6.90, 3.75, 3.67, 0.000, -1.072, 0.096, 18:56:13.799, 1590857773799
60, 28.08, 27.17, 25.57, 23.16, 0.000, -1.072, 0.096, 18:56:13.799, 1590857773799
61, 3.10, 4.46, 2.78, 1.56, 0.000, -1.072, 0.096, 18:56:13.829, 1590857773829
62, -14.29, -2.79, -7.52, -6.81, 0.000, -1.072, 0.096, 18:56:13.829, 1590857773829
63, 2.91, 9.84, 4.92, 6.46, 0.000, -1.072, 0.096, 18:56:13.830, 1590857773830
64, 30.46, 27.72, 21.08, 27.18, 0.000, -1.072, 0.096, 18:56:13.830, 1590857773830
65, -2.11, 5.85, 2.04, 2.59, 0.000, -1.072, 0.096, 18:56:13.830, 1590857773830
66, -8.65, -3.26, -1.95, -4.33, 0.016, -1.104, 0.032, 18:56:13.830, 1590857773830
67, 0.22, 4.15, 7.11, 8.24, 0.016, -1.104, 0.032, 18:56:13.843, 1590857773843
68, 30.16, 27.37, 28.52, 26.02, 0.016, -1.104, 0.032, 18:56:13.843, 1590857773843
69, -2.55, 0.57, -2.64, 6.73, 0.016, -1.104, 0.032, 18:56:13.858, 1590857773858
70, -6.78, -0.74, -4.17, 0.21, 0.016, -1.104, 0.032, 18:56:13.858, 1590857773858
71, 3.66, 5.58, 5.96, 5.10, 0.016, -1.104, 0.032, 18:56:13.859, 1590857773859
72, 27.72, 31.58, 20.09, 28.02, 0.016, -1.104, 0.032, 18:56:13.859, 1590857773859
73, 5.27, 2.34, 3.83, 6.40, 0.016, -1.104, 0.032, 18:56:13.873, 1590857773873
74, -8.84, -3.00, -6.75, -2.33, 0.016, -1.104, 0.032, 18:56:13.873, 1590857773873
75, 5.64, 10.82, 5.56, 5.89, 0.016, -1.104, 0.032, 18:56:13.905, 1590857773905
76, 26.68, 29.94, 22.65, 29.03, 0.016, -1.104, 0.032, 18:56:13.905, 1590857773905
77, -1.49, 8.82, 0.24, 5.22, 0.016, -1.104, 0.032, 18:56:13.905, 1590857773905
78, -5.58, -4.40, -8.72, -2.73, 0.016, -1.104, 0.032, 18:56:13.905, 1590857773905
79, -1.41, 12.57, 6.01, 8.07, 0.016, -1.104, 0.032, 18:56:13.906, 1590857773906
80, 28.10, 28.05, 24.17, 26.89, 0.016, -1.104, 0.032, 18:56:13.906, 1590857773906
81, -1.65, 7.15, 0.21, 9.36, 0.016, -1.104, 0.032, 18:56:13.907, 1590857773907
82, -9.80, -4.44, -4.56, -0.38, 0.016, -1.104, 0.032, 18:56:13.907, 1590857773907
83, 1.30, 4.99, 2.74, 3.62, 0.016, -1.104, 0.032, 18:56:13.918, 1590857773918
84, 26.48, 33.51, 29.88, 31.73, 0.016, -1.104, 0.032, 18:56:13.918, 1590857773918
85, -1.72, 12.92, 8.65, 6.83, 0.016, -1.104, 0.032, 18:56:13.933, 1590857773933
86, -13.40, -0.91, -3.77, -3.39, -0.032, -1.008, 0.016, 18:56:13.933, 1590857773933
87, 3.35, 12.24, 5.52, 5.36, -0.032, -1.008, 0.016, 18:56:13.948, 1590857773948
88, 29.71, 23.35, 27.08, 25.90, -0.032, -1.008, 0.016, 18:56:13.948, 1590857773948
89, 5.74, 5.33, -0.23, 3.52, -0.032, -1.008, 0.016, 18:56:13.949, 1590857773949
90, -11.45, -4.58, -8.56, -5.45, -0.032, -1.008, 0.016, 18:56:13.949, 1590857773949
91, 3.88, 8.12, 1.21, 9.02, -0.032, -1.008, 0.016, 18:56:13.963, 1590857773963
92, 23.92, 28.74, 22.29, 28.41, -0.032, -1.008, 0.016, 18:56:13.963, 1590857773963
93, 1.56, 7.51, 3.50, 7.87, -0.032, -1.008, 0.016, 18:56:13.978, 1590857773978
94, -8.32, -3.36, -1.50, -4.74, -0.032, -1.008, 0.016, 18:56:13.978, 1590857773978
95, 0.38, 6.20, 1.94, 4.93, -0.032, -1.008, 0.016, 18:56:13.979, 1590857773979
96, 31.69, 27.31, 19.37, 28.56, -0.032, -1.008, 0.016, 18:56:13.979, 1590857773979
97, -3.46, 8.33, 0.28, 3.51, -0.032, -1.008, 0.016, 18:56:13.993, 1590857773993
98, -10.38, -4.56, -9.97, -5.33, -0.032, -1.008, 0.016, 18:56:13.993, 1590857773993
99, 7.55, 5.61, 3.93, 6.28, -0.032, -1.008, 0.016, 18:56:14.009, 1590857774009
100, 25.67, 32.43, 31.13, 31.87, -0.032, -1.008, 0.016, 18:56:14.009, 1590857774009
101, 1.36, 3.40, 1.66, 6.99, -0.032, -1.008, 0.016, 18:56:14.009, 1590857774009
102, -5.58, -5.08, -5.87, -1.37, -0.032, -1.008, 0.016, 18:56:14.009, 1590857774009
103, 5.51, 7.49, 6.70, 9.90, -0.032, -1.008, 0.016, 18:56:14.023, 1590857774023
104, 27.54, 30.41, 27.09, 29.02, -0.032, -1.008, 0.016, 18:56:14.023, 1590857774023
105, -2.02, 11.36, 5.55, 8.56, -0.032, -1.008, 0.016, 18:56:14.039, 1590857774039
106, -11.37, -0.38, -7.15, -5.77, -0.032, -1.104, 0.016, 18:56:14.039, 1590857774039
107, 0.87, 8.09, 3.01, 6.89, -0.032, -1.104, 0.016, 18:56:14.039, 1590857774039
108, 24.69, 29.45, 22.68, 26.14, -0.032, -1.104, 0.016, 18:56:14.039, 1590857774039
109, 4.38, 7.74, 5.74, 2.05, -0.032, -1.104, 0.016, 18:56:14.053, 1590857774053
110, -8.45, -5.87, -6.65, -3.29, -0.032, -1.104, 0.016, 18:56:14.053, 1590857774053
111, 1.03, 10.03, 4.01, 4.14, -0.032, -1.104, 0.016, 18:56:14.083, 1590857774083
112, 24.74, 28.38, 21.94, 30.71, -0.032, -1.104, 0.016, 18:56:14.083, 1590857774083
113, -4.58, 4.89, 5.61, 7.74, -0.032, -1.104, 0.016, 18:56:14.100, 1590857774100
114, -10.12, -2.22, -4.09, -1.36, -0.032, -1.104, 0.016, 18:56:14.100, 1590857774100
115, 1.41, 4.87, 2.97, 7.62, -0.032, -1.104, 0.016, 18:56:14.100, 1590857774100
116, 20.91, 29.08, 25.12, 27.66, -0.032, -1.104, 0.016, 18:56:14.100, 1590857774100
117, 4.37, -0.24, 4.60, 4.31, -0.032, -1.104, 0.016, 18:56:14.101, 1590857774101
118, -7.27, 3.35, -2.29, 0.90, -0.032, -1.104, 0.016, 18:56:14.101, 1590857774101
119, 6.76, 11.19, 5.97, 7.37, -0.032, -1.104, 0.016, 18:56:14.113, 1590857774113
120, 28.13, 25.54, 22.38, 23.96, -0.032, -1.104, 0.016, 18:56:14.113, 1590857774113
121, -2.42, 8.38, 3.35, 6.16, -0.032, -1.104, 0.016, 18:56:14.114, 1590857774114
122, -9.74, 4.50, -5.99, -3.57, -0.032, -1.104, 0.016, 18:56:14.114, 1590857774114
123, 5.89, 7.47, 5.62, 8.56, -0.032, -1.104, 0.016, 18:56:14.128, 1590857774128
124, 31.59, 27.57, 25.08, 29.28, -0.032, -1.104, 0.016, 18:56:14.128, 1590857774128
125, 1.11, 3.61, 3.06, 7.17, -0.032, -1.104, 0.016, 18:56:14.129, 1590857774129
126, -8.40, -4.32, -4.90, -0.63, -0.032, -1.024, 0.048, 18:56:14.129, 1590857774129
127, 4.64, 5.31, 4.91, 9.68, -0.032, -1.024, 0.048, 18:56:14.143, 1590857774143
128, 20.39, 27.95, 21.96, 29.01, -0.032, -1.024, 0.048, 18:56:14.143, 1590857774143
129, -0.47, 7.51, 6.04, 3.23, -0.032, -1.024, 0.048, 18:56:14.158, 1590857774158
130, -8.01, 0.19, -2.16, 0.93, -0.032, -1.024, 0.048, 18:56:14.158, 1590857774158
131, 7.46, 10.67, 1.37, 11.20, -0.032, -1.024, 0.048, 18:56:14.159, 1590857774159
132, 21.74, 26.05, 24.20, 27.85, -0.032, -1.024, 0.048, 18:56:14.159, 1590857774159
133, 5.42, 7.76, 2.44, 7.03, -0.032, -1.024, 0.048, 18:56:14.173, 1590857774173
134, -8.81, -4.10, -9.57, -0.62, -0.032, -1.024, 0.048, 18:56:14.173, 1590857774173
135, 8.36, 6.27, 9.04, 6.61, -0.032, -1.024, 0.048, 18:56:14.188, 1590857774188
136, 26.52, 27.14, 23.07, 28.43, -0.032, -1.024, 0.048, 18:56:14.188, 1590857774188
137, 0.21, 8.52, 3.37, 8.08, -0.032, -1.024, 0.048, 18:56:14.189, 1590857774189
138, -7.10, 2.35, -7.49, 0.98, -0.032, -1.024, 0.048, 18:56:14.189, 1590857774189
139, 3.05, 12.50, 6.09, 6.87, -0.032, -1.024, 0.048, 18:56:14.203, 1590857774203
140, 26.33, 28.19, 25.52, 30.06, -0.032, -1.024, 0.048, 18:56:14.203, 1590857774203
141, 3.73, 8.30, 4.47, 7.72, -0.032, -1.024, 0.048, 18:56:14.219, 1590857774219
142, -7.77, 0.29, -4.02, -1.17, -0.032, -1.024, 0.048, 18:56:14.219, 1590857774219
143, 7.24, 10.24, 7.14, 7.54, -0.032, -1.024, 0.048, 18:56:14.219, 1590857774219
144, 20.46, 29.31, 24.83, 28.51, -0.032, -1.024, 0.048, 18:56:14.219, 1590857774219
145, 2.89, 8.22, 3.24, 2.18, -0.032, -1.024, 0.048, 18:56:14.233, 1590857774233
146, -11.21, -6.50, -0.57, 0.73, -0.016, -1.040, 0.096, 18:56:14.233, 1590857774233
147, 2.53, 7.97, 6.38, 8.44, -0.016, -1.040, 0.096, 18:56:14.248, 1590857774248
148, 22.45, 29.03, 23.43, 29.58, -0.016, -1.040, 0.096, 18:56:14.248, 1590857774248
149, 1.66, 5.97, 4.34, 4.30, -0.016, -1.040, 0.096, 18:56:14.264, 1590857774264
150, -2.42, 2.94, 1.10, -2.53, -0.016, -1.040, 0.096, 18:56:14.264, 1590857774264
151, 3.22, 7.81, 7.32, 6.83, -0.016, -1.040, 0.096, 18:56:14.265, 1590857774265
152, 27.26, 27.47, 25.83, 26.16, -0.016, -1.040, 0.096, 18:56:14.265, 1590857774265
153, 5.41, 8.78, 4.22, 3.64, -0.016, -1.040, 0.096, 18:56:14.278, 1590857774278
154, -4.63, -3.42, -2.65, 0.37, -0.016, -1.040, 0.096, 18:56:14.278, 1590857774278
155, -4.72, 5.08, 8.48, 8.88, -0.016, -1.040, 0.096, 18:56:14.279, 1590857774279
156, 23.34, 25.62, 22.31, 29.40, -0.016, -1.040, 0.096, 18:56:14.279, 1590857774279
157, 0.72, 4.89, 3.78, 7.24, -0.016, -1.040, 0.096, 18:56:14.325, 1590857774325
158, -4.78, -4.64, -1.76, -2.86, -0.016, -1.040, 0.096, 18:56:14.325, 1590857774325
159, 3.19, 11.00, 6.39, 12.84, -0.016, -1.040, 0.096, 18:56:14.326, 1590857774326
160, 27.07, 32.26, 22.24, 31.58, -0.016, -1.040, 0.096, 18:56:14.326, 1590857774326
161, -0.75, 5.49, 4.14, 3.06, -0.016, -1.040, 0.096, 18:56:14.327, 1590857774327
162, -5.22, 4.85, -7.62, -1.00, -0.016, -1.040, 0.096, 18:56:14.327, 1590857774327
163, 4.31, 9.67, 2.89, 7.52, -0.016, -1.040, 0.096, 18:56:14.327, 1590857774327
164, 26.66, 28.99, 24.18, 22.39, -0.016, -1.040, 0.096, 18:56:14.327, 1590857774327
165, 6.48, 5.35, 0.87, 2.43, -0.016, -1.040, 0.096, 18:56:14.339, 1590857774339
166, -4.46, 0.50, -2.24, -2.99, -0.016, -1.040, 0.080, 18:56:14.339, 1590857774339
167, 3.84, 10.71, 3.05, 6.71, -0.016, -1.040, 0.080, 18:56:14.339, 1590857774339
168, 22.73, 33.26, 24.22, 29.05, -0.016, -1.040, 0.080, 18:56:14.339, 1590857774339
169, -0.01, 4.17, 3.94, 8.15, -0.016, -1.040, 0.080, 18:56:14.353, 1590857774353
170, -8.11, 2.82, -4.18, -1.85, -0.016, -1.040, 0.080, 18:56:14.353, 1590857774353
171, 7.44, 9.23, 4.43, 8.09, -0.016, -1.040, 0.080, 18:56:14.385, 1590857774385
172, 29.35, 22.88, 27.61, 27.31, -0.016, -1.040, 0.080, 18:56:14.385, 1590857774385
173, 0.29, 9.04, 0.91, 5.53, -0.016, -1.040, 0.080, 18:56:14.385, 1590857774385
174, -8.39, 3.10, -9.38, -3.99, -0.016, -1.040, 0.080, 18:56:14.385, 1590857774385
175, 4.99, 7.78, 5.71, 9.16, -0.016, -1.040, 0.080, 18:56:14.386, 1590857774386
176, 22.82, 25.58, 25.91, 28.08, -0.016, -1.040, 0.080, 18:56:14.386, 1590857774386
177, 0.33, 5.43, 1.99, 5.98, -0.016, -1.040, 0.080, 18:56:14.387, 1590857774387
178, -8.21, -0.30, -3.24, -0.50, -0.016, -1.040, 0.080, 18:56:14.387, 1590857774387
179, 3.44, 9.42, -0.61, 9.15, -0.016, -1.040, 0.080, 18:56:14.398, 1590857774398
180, 34.59, 30.53, 22.92, 25.75, -0.016, -1.040, 0.080, 18:56:14.398, 1590857774398
181, 6.16, 7.94, 9.41, 4.37, -0.016, -1.040, 0.080, 18:56:14.429, 1590857774429
182, -0.61, 3.91, -0.74, 2.77, -0.016, -1.040, 0.080, 18:56:14.429, 1590857774429
183, 6.44, 10.94, 5.16, 4.57, -0.016, -1.040, 0.080, 18:56:14.430, 1590857774430
184, 30.35, 31.12, 25.33, 25.28, -0.016, -1.040, 0.080, 18:56:14.430, 1590857774430
185, -1.83, 8.07, 2.30, 5.95, -0.016, -1.040, 0.080, 18:56:14.431, 1590857774431
186, -6.83, 1.32, -7.25, 1.91, 0.064, -1.072, -0.048, 18:56:14.431, 1590857774431
187, 5.12, 10.74, 1.33, 8.65, 0.064, -1.072, -0.048, 18:56:14.443, 1590857774443
188, 30.53, 29.69, 23.73, 24.84, 0.064, -1.072, -0.048, 18:56:14.443, 1590857774443
189, 4.06, 6.01, 2.20, 7.37, 0.064, -1.072, -0.048, 18:56:14.458, 1590857774458
190, -2.06, 0.15, -4.70, -0.55, 0.064, -1.072, -0.048, 18:56:14.458, 1590857774458
191, 3.48, 6.45, 1.73, 7.59, 0.064, -1.072, -0.048, 18:56:14.459, 1590857774459
192, 24.97, 26.08, 24.11, 22.89, 0.064, -1.072, -0.048, 18:56:14.459, 1590857774459
193, 4.13, 4.64, 2.13, 6.98, 0.064, -1.072, -0.048, 18:56:14.473, 1590857774473
194, -12.10, -3.81, -6.67, -2.71, 0.064, -1.072, -0.048, 18:56:14.473, 1590857774473
195, 5.71, 12.25, 6.60, 3.55, 0.064, -1.072, -0.048, 18:56:14.488, 1590857774488
196, 20.11, 28.13, 24.15, 29.11, 0.064, -1.072, -0.048, 18:56:14.488, 1590857774488
197, 3.78, 3.80, 4.08, 10.66, 0.064, -1.072, -0.048, 18:56:14.489, 1590857774489
198, -2.70, -0.55, -4.47, -3.45, 0.064, -1.072, -0.048, 18:56:14.489, 1590857774489
199, 6.95, 8.15, 3.55, 9.40, 0.064, -1.072, -0.048, 18:56:14.504, 1590857774504
200, 25.43, 25.63, 22.66, 25.49, 0.064, -1.072, -0.048, 18:56:14.504, 1590857774504
0, -0.14, 6.20, 1.51, 9.14, 0.064, -1.072, -0.048, 18:56:14.504, 1590857774504
1, -8.84, 2.58, -2.11, -1.60, 0.064, -1.072, -0.048, 18:56:14.518, 1590857774518
2, 7.11, 7.51, 4.30, 5.14, 0.064, -1.072, -0.048, 18:56:14.518, 1590857774518
3, 23.68, 26.39, 22.90, 22.02, 0.064, -1.072, -0.048, 18:56:14.533, 1590857774533
4, 2.55, 7.69, 6.21, 5.36, 0.064, -1.072, -0.048, 18:56:14.533, 1590857774533
5, -6.09, 1.11, -5.71, -3.18, 0.064, -1.072, -0.048, 18:56:14.534, 1590857774534
6, 3.92, 3.91, -0.75, 6.68, 0.032, -1.056, 0.032, 18:56:14.534, 1590857774534
7, 25.82, 25.99, 22.65, 28.78, 0.032, -1.056, 0.032, 18:56:14.548, 1590857774548
8, -2.66, 4.43, -3.19, 2.85, 0.032, -1.056, 0.032, 18:56:14.548, 1590857774548
9, -6.57, -1.14, -5.06, -0.74, 0.032, -1.056, 0.032, 18:56:14.564, 1590857774564
10, 4.00, 8.05, 2.90, 4.59, 0.032, -1.056, 0.032, 18:56:14.564, 1590857774564
11, 20.93, 29.01, 17.92, 24.72, 0.032, -1.056, 0.032, 18:56:14.565, 1590857774565
12, 0.71, 9.27, -1.54, 7.43, 0.032, -1.056, 0.032, 18:56:14.565, 1590857774565
13, -9.53, -1.74, -4.05, -0.92, 0.032, -1.056, 0.032, 18:56:14.578, 1590857774578
14, 1.90, 8.33, 3.19, 3.12, 0.032, -1.056, 0.032, 18:56:14.578, 1590857774578
15, 27.35, 30.51, 25.93, 26.30, 0.032, -1.056, 0.032, 18:56:14.593, 1590857774593
16, 1.14, 6.99, 7.75, 9.30, 0.032, -1.056, 0.032, 18:56:14.593, 1590857774593
17, -9.98, -0.42, -3.19, -1.72, 0.032, -1.056, 0.032, 18:56:14.594, 1590857774594
18, 4.19, 10.70, 5.14, 7.64, 0.032, -1.056, 0.032, 18:56:14.594, 1590857774594
19, 27.25, 27.19, 23.88, 26.82, 0.032, -1.056, 0.032, 18:56:14.608, 1590857774608
20, 0.90, 7.79, 1.11, 4.59, 0.032, -1.056, 0.032, 18:56:14.608, 1590857774608
21, -6.96, 4.57, -6.15, -3.16, 0.032, -1.056, 0.032, 18:56:14.623, 1590857774623
22, 3.84, 2.17, 3.02, 11.75, 0.032, -1.056, 0.032, 18:56:14.623, 1590857774623
23, 29.51, 26.67, 25.32, 25.57, 0.032, -1.056, 0.032, 18:56:14.624, 1590857774624
24, 1.09, 1.26, 0.42, 7.27, 0.032, -1.056, 0.032, 18:56:14.624, 1590857774624
25, -7.74, 1.50, 1.39, -1.22, 0.032, -1.056, 0.032, 18:56:14.638, 1590857774638
26, 3.83, 8.26, 5.29, 3.91, 0.048, -1.024, 0.016, 18:56:14.638, 1590857774638
27, 31.71, 32.40, 27.62, 30.02, 0.048, -1.024, 0.016, 18:56:14.654, 1590857774654
28, 4.37, 9.30, 3.26, 2.69, 0.048, -1.024, 0.016, 18:56:14.654, 1590857774654
29, -7.29, 0.49, 2.10, -2.03, 0.048, -1.024, 0.016, 18:56:14.654, 1590857774654
30, 0.23, 8.11, 7.04, 5.28, 0.048, -1.024, 0.016, 18:56:14.654, 1590857774654
31, 27.98, 30.65, 25.44, 28.71, 0.048, -1.024, 0.016, 18:56:14.668, 1590857774668
32, -2.06, 7.13, 4.50, 3.73, 0.048, -1.024, 0.016, 18:56:14.668, 1590857774668
33, -7.17, -0.22, -4.65, -0.42, 0.048, -1.024, 0.016, 18:56:14.683, 1590857774683
34, 3.10, 7.53, 6.88, 6.22, 0.048, -1.024, 0.016, 18:56:14.683, 1590857774683
35, 29.09, 30.85, 25.31, 28.49, 0.048, -1.024, 0.016, 18:56:14.684, 1590857774684
36, -3.26, 4.12, 2.58, 5.64, 0.048, -1.024, 0.016, 18:56:14.684, 1590857774684
37, -8.01, -1.33, -3.84, 1.56, 0.048, -1.024, 0.016, 18:56:14.714, 1590857774714
38, 0.03, 7.63, 4.24, 10.74, 0.048, -1.024, 0.016, 18:56:14.714, 1590857774714
39, 29.00, 29.05, 27.01, 29.63, 0.048, -1.024, 0.016, 18:56:14.715, 1590857774715
40, 2.11, 7.96, -0.17, 6.77, 0.048, -1.024, 0.016, 18:56:14.715, 1590857774715
41, -4.42, 1.09, 0.43, -0.73, 0.048, -1.024, 0.016, 18:56:14.715, 1590857774715
42, 2.47, 6.76, 8.60, 9.15, 0.048, -1.024, 0.016, 18:56:14.715, 1590857774715
43, 27.21, 29.68, 22.90, 32.43, 0.048, -1.024, 0.016, 18:56:14.728, 1590857774728
44, 0.22, 9.20, 5.42, 10.21, 0.048, -1.024, 0.016, 18:56:14.728, 1590857774728
45, -11.92, -0.21, -9.06, -5.29, 0.048, -1.024, 0.016, 18:56:14.760, 1590857774760
46, 2.86, 5.76, 6.25, 5.76, 0.016, -1.056, 0.128, 18:56:14.760, 1590857774760
47, 25.41, 26.72, 20.52, 28.87, 0.016, -1.056, 0.128, 18:56:14.760, 1590857774760
48, -0.30, 8.48, 1.33, 7.49, 0.016, -1.056, 0.128, 18:56:14.760, 1590857774760
49, -4.31, -1.92, -3.16, -1.34, 0.016, -1.056, 0.128, 18:56:14.774, 1590857774774
50, 2.79, 11.05, 3.55, 10.37, 0.016, -1.056, 0.128, 18:56:14.774, 1590857774774
51, 25.84, 27.48, 21.00, 25.30, 0.016, -1.056, 0.128, 18:56:14.775, 1590857774775
52, 2.93, 9.11, -1.42, 5.76, 0.016, -1.056, 0.128, 18:56:14.775, 1590857774775
53, -6.64, -1.36, 1.28, -0.10, 0.016, -1.056, 0.128, 18:56:14.776, 1590857774776
54, -0.68, 10.61, 3.65, 4.12, 0.016, -1.056, 0.128, 18:56:14.776, 1590857774776
55, 27.76, 32.65, 24.00, 30.24, 0.016, -1.056, 0.128, 18:56:14.789, 1590857774789
56, -1.02, 4.23, 4.18, 5.02, 0.016, -1.056, 0.128, 18:56:14.789, 1590857774789
57, -14.59, -1.39, -10.91, -6.38, 0.016, -1.056, 0.128, 18:56:14.820, 1590857774820
58, 3.90, 7.26, 2.75, 3.44, 0.016, -1.056, 0.128, 18:56:14.820, 1590857774820
59, 29.05, 28.27, 28.82, 29.62, 0.016, -1.056, 0.128, 18:56:14.821, 1590857774821
60, 8.38, 8.80, -0.39, 4.45, 0.016, -1.056, 0.128, 18:56:14.821, 1590857774821
61, -4.58, -2.28, -2.90, -3.77, 0.016, -1.056, 0.128, 18:56:14.822, 1590857774822
62, -2.26, 9.54, 5.28, 4.05, 0.016, -1.056, 0.128, 18:56:14.822, 1590857774822
63, 24.72, 28.89, 28.85, 29.26, 0.016, -1.056, 0.128, 18:56:14.822, 1590857774822
64, -5.66, 10.63, 1.86, 4.59, 0.016, -1.056, 0.128, 18:56:14.822, 1590857774822
65, -10.94, -3.30, -6.83, -6.53, 0.016, -1.056, 0.128, 18:56:14.833, 1590857774833
66, 3.52, 6.18, 1.46, 3.78, 0.080, -1.056, 0.160, 18:56:14.833, 1590857774833
67, 26.23, 32.19, 26.54, 31.04, 0.080, -1.056, 0.160, 18:56:14.863, 1590857774863
68, -0.14, 5.75, 1.37, 8.00, 0.080, -1.056, 0.160, 18:56:14.863, 1590857774863
69, -9.94, -1.22, -3.40, -3.00, 0.080, -1.056, 0.160, 18:56:14.880, 1590857774880
70, 1.07, 10.91, 5.70, 9.17, 0.080, -1.056, 0.160, 18:56:14.880, 1590857774880
71, 24.62, 28.12, 25.12, 30.94, 0.080, -1.056, 0.160, 18:56:14.881, 1590857774881
72, -3.35, 5.44, -3.27, 3.06, 0.080, -1.056, 0.160, 18:56:14.881, 1590857774881
73, -8.27, -4.54, -5.18, 1.41, 0.080, -1.056, 0.160, 18:56:14.881, 1590857774881
74, 4.87, 7.14, 0.12, 9.43, 0.080, -1.056, 0.160, 18:56:14.881, 1590857774881
75, 35.14, 33.21, 28.25, 36.49, 0.080, -1.056, 0.160, 18:56:14.882, 1590857774882
76, 3.51, 6.74, 6.27, 6.04, 0.080, -1.056, 0.160, 18:56:14.882, 1590857774882
77, -9.79, -2.12, -9.46, -0.93, 0.080, -1.056, 0.160, 18:56:14.893, 1590857774893
78, 8.31, 7.99, 8.17, 8.41, 0.080, -1.056, 0.160, 18:56:14.893, 1590857774893
79, 32.87, 29.42, 27.11, 34.49, 0.080, -1.056, 0.160, 18:56:14.908, 1590857774908
80, 3.57, 3.29, 4.19, 3.53, 0.080, -1.056, 0.160, 18:56:14.908, 1590857774908
81, -5.45, -2.57, -8.90, -3.65, 0.080, -1.056, 0.160, 18:56:14.923, 1590857774923
82, 9.92, 1.63, 4.54, 5.64, 0.080, -1.056, 0.160, 18:56:14.923, 1590857774923
83, 27.22, 31.13, 28.75, 29.71, 0.080, -1.056, 0.160, 18:56:14.924, 1590857774924
84, -1.15, 11.42, -0.92, 7.55, 0.080, -1.056, 0.160, 18:56:14.924, 1590857774924
85, -9.55, -5.22, -6.01, -1.68, 0.080, -1.056, 0.160, 18:56:14.938, 1590857774938
86, -0.74, 5.74, 3.03, 4.28, 0.016, -1.040, 0.160, 18:56:14.938, 1590857774938
87, 34.23, 33.81, 28.28, 32.44, 0.016, -1.040, 0.160, 18:56:14.953, 1590857774953
88, 2.90, 9.10, 2.16, 2.01, 0.016, -1.040, 0.160, 18:56:14.953, 1590857774953
89, -9.08, -2.78, -4.39, -3.94, 0.016, -1.040, 0.160, 18:56:14.954, 1590857774954
90, 4.17, 5.84, 4.19, 4.60, 0.016, -1.040, 0.160, 18:56:14.954, 1590857774954
91, 30.42, 31.05, 22.87, 31.09, 0.016, -1.040, 0.160, 18:56:14.968, 1590857774968
92, -0.21, 4.14, -1.17, 3.58, 0.016, -1.040, 0.160, 18:56:14.968, 1590857774968
93, -5.35, -4.13, -8.44, -2.53, 0.016, -1.040, 0.160, 18:56:14.983, 1590857774983
94, 4.89, 11.51, 9.27, 7.59, 0.016, -1.040, 0.160, 18:56:14.983, 1590857774983
95, 24.36, 32.36, 23.99, 29.73, 0.016, -1.040, 0.160, 18:56:14.984, 1590857774984
96, 0.04, 8.34, 3.48, 4.64, 0.016, -1.040, 0.160, 18:56:14.984, 1590857774984
97, -8.28, 1.91, -6.17, -3.11, 0.016, -1.040, 0.160, 18:56:14.998, 1590857774998
98, 1.42, 10.65, 6.94, 3.39, 0.016, -1.040, 0.160, 18:56:14.998, 1590857774998
99, 32.97, 37.02, 29.54, 30.14, 0.016, -1.040, 0.160, 18:56:15.013, 1590857775013
100, 1.83, 3.19, 3.38, 1.76, 0.016, -1.040, 0.160, 18:56:15.013, 1590857775013
101, -11.32, -2.56, -7.66, -4.88, 0.016, -1.040, 0.160, 18:56:15.014, 1590857775014
102, 7.77, 6.65, 3.34, 10.71, 0.016, -1.040, 0.160, 18:56:15.014, 1590857775014
103, 29.63, 30.69, 32.02, 32.46, 0.016, -1.040, 0.160, 18:56:15.028, 1590857775028
104, 0.18, 3.34, 4.32, 0.29, 0.016, -1.040, 0.160, 18:56:15.028, 1590857775028
105, -10.57, -0.75, -3.15, -1.66, 0.016, -1.040, 0.160, 18:56:15.043, 1590857775043
106, 5.17, 10.98, 6.44, 7.26, 0.160, -1.040, 0.064, 18:56:15.043, 1590857775043
107, 31.99, 32.88, 23.96, 30.68, 0.160, -1.040, 0.064, 18:56:15.044, 1590857775044
108, 1.64, 5.91, 1.60, 4.12, 0.160, -1.040, 0.064, 18:56:15.044, 1590857775044
109, -4.79, -5.52, -1.72, -3.76, 0.160, -1.040, 0.064, 18:56:15.058, 1590857775058
110, 0.89, 8.23, -1.46, 6.16, 0.160, -1.040, 0.064, 18:56:15.058, 1590857775058
111, 24.75, 31.55, 26.72, 27.61, 0.160, -1.040, 0.064, 18:56:15.073, 1590857775073
112, -2.32, 7.65, 2.33, 3.30, 0.160, -1.040, 0.064, 18:56:15.073, 1590857775073
113, -10.23, -1.38, -9.24, -5.00, 0.160, -1.040, 0.064, 18:56:15.074, 1590857775074
114, 2.35, 11.80, 5.37, 7.65, 0.160, -1.040, 0.064, 18:56:15.074, 1590857775074
115, 30.14, 29.75, 29.03, 32.28, 0.160, -1.040, 0.064, 18:56:15.088, 1590857775088
116, -2.13, 4.25, -0.55, 3.51, 0.160, -1.040, 0.064, 18:56:15.088, 1590857775088
117, -11.32, 0.36, -3.39, -4.55, 0.160, -1.040, 0.064, 18:56:15.104, 1590857775104
118, 7.31, 9.86, 3.98, 7.98, 0.160, -1.040, 0.064, 18:56:15.104, 1590857775104
119, 30.22, 30.84, 29.54, 32.91, 0.160, -1.040, 0.064, 18:56:15.104, 1590857775104
120, 4.50, 5.35, 0.54, 1.91, 0.160, -1.040, 0.064, 18:56:15.104, 1590857775104
121, -12.16, -0.43, -6.86, -1.05, 0.160, -1.040, 0.064, 18:56:15.118, 1590857775118
122, 1.25, 7.26, 2.58, 10.51, 0.160, -1.040, 0.064, 18:56:15.118, 1590857775118
123, 28.48, 34.10, 28.26, 31.47, 0.160, -1.040, 0.064, 18:56:15.134, 1590857775134
124, 4.08, 9.06, 6.00, 1.84, 0.160, -1.040, 0.064, 18:56:15.134, 1590857775134
125, -9.30, -6.59, -2.62, -3.24, 0.160, -1.040, 0.064, 18:56:15.134, 1590857775134
126, 3.57, 8.85, 5.92, 9.43, 0.080, -1.024, 0.144, 18:56:15.134, 1590857775134
127, 32.60, 30.30, 25.80, 30.21, 0.080, -1.024, 0.144, 18:56:15.148, 1590857775148
128, -3.28, 5.51, -0.26, 3.77, 0.080, -1.024, 0.144, 18:56:15.148, 1590857775148
129, -5.84, -3.77, -3.95, -5.78, 0.080, -1.024, 0.144, 18:56:15.163, 1590857775163
130, 6.49, 11.57, 4.59, 2.00, 0.080, -1.024, 0.144, 18:56:15.163, 1590857775163
131, 30.64, 33.96, 26.87, 29.89, 0.080, -1.024, 0.144, 18:56:15.164, 1590857775164
132, 1.81, 4.57, -2.57, 8.51, 0.080, -1.024, 0.144, 18:56:15.164, 1590857775164
133, -7.25, 2.30, -4.53, -1.13, 0.080, -1.024, 0.144, 18:56:15.178, 1590857775178
134, 4.20, 5.94, 6.65, 7.60, 0.080, -1.024, 0.144, 18:56:15.178, 1590857775178
135, 30.21, 28.34, 28.14, 30.50, 0.080, -1.024, 0.144, 18:56:15.210, 1590857775210
136, 3.32, 10.43, 5.52, 4.70, 0.080, -1.024, 0.144, 18:56:15.210, 1590857775210
137, -10.93, -4.00, -3.35, 1.15, 0.080, -1.024, 0.144, 18:56:15.211, 1590857775211
138, 4.06, 7.77, 7.11, 8.62, 0.080, -1.024, 0.144, 18:56:15.211, 1590857775211
139, 29.09, 31.01, 23.36, 30.61, 0.080, -1.024, 0.144, 18:56:15.212, 1590857775212
140, -0.08, 4.33, 2.01, 3.71, 0.080, -1.024, 0.144, 18:56:15.212, 1590857775212
141, -5.47, -4.57, -2.49, -6.13, 0.080, -1.024, 0.144, 18:56:15.223, 1590857775223
142, 4.02, 11.66, 6.39, 9.32, 0.080, -1.024, 0.144, 18:56:15.223, 1590857775223
143, 25.88, 34.43, 21.39, 35.85, 0.080, -1.024, 0.144, 18:56:15.224, 1590857775224
144, 0.13, 6.22, 6.96, 3.59, 0.080, -1.024, 0.144, 18:56:15.224, 1590857775224
145, -6.78, 0.86, -7.77, -2.96, 0.080, -1.024, 0.144, 18:56:15.238, 1590857775238
146, 0.88, 7.63, 7.46, 2.37, -0.128, -1.008, 0.096, 18:56:15.238, 1590857775238
147, 27.42, 31.13, 26.40, 31.46, -0.128, -1.008, 0.096, 18:56:15.253, 1590857775253
148, 3.09, 7.43, 0.57, 0.70, -0.128, -1.008, 0.096, 18:56:15.253, 1590857775253
149, -6.08, -0.70, -4.61, -5.43, -0.128, -1.008, 0.096, 18:56:15.254, 1590857775254
150, -2.60, 13.08, 7.80, 9.08, -0.128, -1.008, 0.096, 18:56:15.254, 1590857775254
151, 25.04, 36.36, 23.76, 31.97, -0.128, -1.008, 0.096, 18:56:15.268, 1590857775268
152, -4.00, 4.37, 2.57, 1.38, -0.128, -1.008, 0.096, 18:56:15.268, 1590857775268
153, -4.74, -0.92, -3.82, -4.91, -0.128, -1.008, 0.096, 18:56:15.284, 1590857775284
154, 5.32, 9.19, 5.80, 11.09, -0.128, -1.008, 0.096, 18:56:15.284, 1590857775284
155, 27.92, 30.68, 22.47, 34.06, -0.128, -1.008, 0.096, 18:56:15.285, 1590857775285
156, -2.83, 3.18, 3.99, 8.04, -0.128, -1.008, 0.096, 18:56:15.285, 1590857775285
157, -11.97, -3.13, -3.20, -1.44, -0.128, -1.008, 0.096, 18:56:15.298, 1590857775298
158, 1.79, 1.44, 1.68, 10.19, -0.128, -1.008, 0.096, 18:56:15.298, 1590857775298
159, 23.45, 27.31, 24.03, 31.53, -0.128, -1.008, 0.096, 18:56:15.330, 1590857775330
160, -0.15, 5.63, 2.74, 4.35, -0.128, -1.008, 0.096, 18:56:15.330, 1590857775330
161, -7.37, -2.88, -7.46, 0.12, -0.128, -1.008, 0.096, 18:56:15.331, 1590857775331
162, 3.20, 8.46, 2.47, 4.27, -0.128, -1.008, 0.096, 18:56:15.331, 1590857775331
163, 26.33, 33.58, 30.50, 31.94, -0.128, -1.008, 0.096, 18:56:15.332, 1590857775332
164, 2.65, 5.42, 1.73, 8.93, -0.128, -1.008, 0.096, 18:56:15.332, 1590857775332
165, -8.52, -2.06, -5.90, -4.01, -0.128, -1.008, 0.096, 18:56:15.332, 1590857775332
166, 6.79, 6.40, 9.90, 5.31, -0.064, -1.008, 0.144, 18:56:15.332, 1590857775332
167, 26.84, 26.59, 22.91, 24.40, -0.064, -1.008, 0.144, 18:56:15.343, 1590857775343
168, -1.12, 7.25, 3.97, 3.13, -0.064, -1.008, 0.144, 18:56:15.343, 1590857775343
169, -9.89, -5.87, -2.77, -5.79, -0.064, -1.008, 0.144, 18:56:15.374, 1590857775374
170, 8.81, 7.22, 4.64, 6.11, -0.064, -1.008, 0.144, 18:56:15.374, 1590857775374
171, 30.67, 32.02, 24.87, 29.68, -0.064, -1.008, 0.144, 18:56:15.375, 1590857775375
172, 5.34, 7.35, 3.66, 6.74, -0.064, -1.008, 0.144, 18:56:15.375, 1590857775375
173, -5.33, -0.42, -4.49, -0.42, -0.064, -1.008, 0.144, 18:56:15.375, 1590857775375
174, 4.17, 8.27, 3.29, 5.97, -0.064, -1.008, 0.144, 18:56:15.375, 1590857775375
175, 31.81, 31.83, 25.53, 31.27, -0.064, -1.008, 0.144, 18:56:15.405, 1590857775405
176, 3.15, 7.81, 6.20, 4.85, -0.064, -1.008, 0.144, 18:56:15.405, 1590857775405
177, -8.52, -3.59, -7.91, -4.05, -0.064, -1.008, 0.144, 18:56:15.405, 1590857775405
178, -1.16, 6.02, 4.28, 5.14, -0.064, -1.008, 0.144, 18:56:15.405, 1590857775405
179, 29.51, 27.44, 23.69, 30.67, -0.064, -1.008, 0.144, 18:56:15.405, 1590857775405
180, -4.21, 1.83, -0.54, 3.51, -0.064, -1.008, 0.144, 18:56:15.405, 1590857775405
181, -11.44, -3.27, -9.55, -4.41, -0.064, -1.008, 0.144, 18:56:15.434, 1590857775434
182, 4.73, 13.38, 2.86, 12.34, -0.064, -1.008, 0.144, 18:56:15.434, 1590857775434
183, 29.88, 29.96, 21.96, 30.60, -0.064, -1.008, 0.144, 18:56:15.435, 1590857775435
184, 5.08, 8.61, 0.73, 1.93, -0.064, -1.008, 0.144, 18:56:15.435, 1590857775435
185, -8.48, -2.72, -5.89, -2.49, -0.064, -1.008, 0.144, 18:56:15.436, 1590857775436
186, 2.14, 7.56, -1.34, 3.23, 0.080, -1.024, 0.160, 18:56:15.436, 1590857775436
187, 30.99, 27.60, 24.65, 27.29, 0.080, -1.024, 0.160, 18:56:15.448, 1590857775448
188, 2.16, 4.52, 4.44, 3.93, 0.080, -1.024, 0.160, 18:56:15.448, 1590857775448
189, -11.99, -1.88, -9.06, -0.46, 0.080, -1.024, 0.160, 18:56:15.464, 1590857775464
190, 1.69, 6.58, 2.70, 6.24, 0.080, -1.024, 0.160, 18:56:15.464, 1590857775464
191, 25.46, 25.40, 28.09, 28.43, 0.080, -1.024, 0.160, 18:56:15.478, 1590857775478
192, -1.09, 5.43, -2.77, 4.86, 0.080, -1.024, 0.160, 18:56:15.478, 1590857775478
193, -9.10, 2.75, 0.00, -5.49, 0.080, -1.024, 0.160, 18:56:15.494, 1590857775494
194, -1.97, 5.61, 3.71, 3.36, 0.080, -1.024, 0.160, 18:56:15.494, 1590857775494
195, 29.26, 28.58, 26.22, 30.31, 0.080, -1.024, 0.160, 18:56:15.495, 1590857775495
196, -1.74, 3.58, 2.31, 6.44, 0.080, -1.024, 0.160, 18:56:15.495, 1590857775495
197, -9.48, -4.74, -7.02, -4.83, 0.080, -1.024, 0.160, 18:56:15.496, 1590857775496
198, 6.21, 10.23, 10.76, 5.65, 0.080, -1.024, 0.160, 18:56:15.496, 1590857775496
199, 34.72, 27.17, 29.16, 28.80, 0.080, -1.024, 0.160, 18:56:15.508, 1590857775508
200, 2.26, 3.82, 6.49, 0.42, 0.080, -1.024, 0.160, 18:56:15.508, 1590857775508
0, -12.60, -8.10, -5.53, -4.65, 0.080, -1.024, 0.160, 18:56:15.509, 1590857775509
1, 4.10, 7.61, 3.95, 2.66, 0.080, -1.024, 0.160, 18:56:15.523, 1590857775523
2, 24.78, 30.58, 22.73, 28.20, 0.080, -1.024, 0.160, 18:56:15.523, 1590857775523
3, 3.73, 7.90, 6.99, 8.13, 0.080, -1.024, 0.160, 18:56:15.538, 1590857775538
4, -8.69, 4.09, 4.42, 2.70, 0.080, -1.024, 0.160, 18:56:15.538, 1590857775538
5, 3.44, 9.65, 7.87, 8.10, 0.080, -1.024, 0.160, 18:56:15.539, 1590857775539
6, 32.52, 29.51, 29.68, 29.79, 0.128, -1.024, 0.160, 18:56:15.539, 1590857775539
7, 0.78, 10.76, 4.79, 6.67, 0.128, -1.024, 0.160, 18:56:15.585, 1590857775585
8, -7.56, -3.72, -1.90, -5.32, 0.128, -1.024, 0.160, 18:56:15.585, 1590857775585
9, 2.52, 10.43, 6.49, 5.39, 0.128, -1.024, 0.160, 18:56:15.586, 1590857775586
10, 30.23, 35.44, 22.64, 31.37, 0.128, -1.024, 0.160, 18:56:15.586, 1590857775586
11, 1.23, 3.61, 3.07, 3.46, 0.128, -1.024, 0.160, 18:56:15.587, 1590857775587
12, -4.25, 5.71, -1.50, -4.33, 0.128, -1.024, 0.160, 18:56:15.587, 1590857775587
13, 3.87, 14.25, 5.50, 5.71, 0.128, -1.024, 0.160, 18:56:15.588, 1590857775588
14, 28.33, 31.48, 25.08, 29.14, 0.128, -1.024, 0.160, 18:56:15.588, 1590857775588
15, 0.53, 6.16, -2.60, 1.62, 0.128, -1.024, 0.160, 18:56:15.599, 1590857775599
16, -7.01, -1.28, -4.78, -4.68, 0.128, -1.024, 0.160, 18:56:15.599, 1590857775599
17, 6.12, 10.22, 2.35, 6.92, 0.128, -1.024, 0.160, 18:56:15.599, 1590857775599
18, 25.68, 27.32, 26.39, 30.61, 0.128, -1.024, 0.160, 18:56:15.599, 1590857775599
19, 0.30, 3.63, 4.74, 7.32, 0.128, -1.024, 0.160, 18:56:15.613, 1590857775613
20, -8.87, -2.37, -3.12, -1.15, 0.128, -1.024, 0.160, 18:56:15.613, 1590857775613
21, 4.89, 9.08, 6.60, 11.27, 0.128, -1.024, 0.160, 18:56:15.628, 1590857775628
22, 29.14, 26.36, 24.94, 31.09, 0.128, -1.024, 0.160, 18:56:15.628, 1590857775628
23, -0.78, 4.08, 9.53, 6.25, 0.128, -1.024, 0.160, 18:56:15.629, 1590857775629
24, -8.92, -6.33, -6.51, -5.99, 0.128, -1.024, 0.160, 18:56:15.629, 1590857775629
25, 5.09, 7.71, 4.07, 8.37, 0.128, -1.024, 0.160, 18:56:15.643, 1590857775643
26, 27.60, 31.87, 25.08, 31.06, 0.096, -1.024, 0.192, 18:56:15.643, 1590857775643
27, 3.41, 9.25, 4.70, 3.89, 0.096, -1.024, 0.192, 18:56:15.659, 1590857775659
28, -6.35, 1.51, -2.37, -9.28, 0.096, -1.024, 0.192, 18:56:15.659, 1590857775659
29, 3.45, 10.25, 5.48, 3.19, 0.096, -1.024, 0.192, 18:56:15.660, 1590857775660
30, 28.07, 32.12, 23.15, 28.89, 0.096, -1.024, 0.192, 18:56:15.660, 1590857775660
31, 5.64, 6.62, 7.45, 4.83, 0.096, -1.024, 0.192, 18:56:15.673, 1590857775673
32, -11.91, -1.25, -2.86, -4.72, 0.096, -1.024, 0.192, 18:56:15.673, 1590857775673
33, 3.03, 8.91, 5.72, 5.34, 0.096, -1.024, 0.192, 18:56:15.689, 1590857775689
34, 31.73, 28.97, 24.66, 25.00, 0.096, -1.024, 0.192, 18:56:15.689, 1590857775689
35, -0.66, 2.64, 0.06, 3.15, 0.096, -1.024, 0.192, 18:56:15.690, 1590857775690
36, -9.85, -2.80, -12.15, -8.80, 0.096, -1.024, 0.192, 18:56:15.690, 1590857775690
37, 3.61, 12.99, 3.73, 11.47, 0.096, -1.024, 0.192, 18:56:15.703, 1590857775703
38, 27.28, 27.16, 24.24, 27.76, 0.096, -1.024, 0.192, 18:56:15.703, 1590857775703
39, 0.53, 8.04, 2.53, 7.03, 0.096, -1.024, 0.192, 18:56:15.735, 1590857775735
40, -3.20, -0.20, -3.90, -1.58, 0.096, -1.024, 0.192, 18:56:15.735, 1590857775735
41, 4.10, 8.13, 3.82, 8.18, 0.096, -1.024, 0.192, 18:56:15.735, 1590857775735
42, 27.18, 28.71, 27.87, 31.26, 0.096, -1.024, 0.192, 18:56:15.735, 1590857775735
43, -1.40, 4.72, 0.01, 8.17, 0.096, -1.024, 0.192, 18:56:15.736, 1590857775736
44, -5.33, -4.74, -3.38, -1.88, 0.096, -1.024, 0.192, 18:56:15.736, 1590857775736
45, 5.54, 12.16, 2.22, 5.16, 0.096, -1.024, 0.192, 18:56:15.737, 1590857775737
46, 32.27, 28.95, 26.49, 26.37, 0.096, -0.992, 0.128, 18:56:15.737, 1590857775737
47, 1.04, 4.86, 1.53, 0.76, 0.096, -0.992, 0.128, 18:56:15.748, 1590857775748
48, -10.49, 3.54, -0.69, -1.54, 0.096, -0.992, 0.128, 18:56:15.748, 1590857775748
49, 1.72, 8.02, 5.02, 9.57, 0.096, -0.992, 0.128, 18:56:15.763, 1590857775763
50, 23.60, 29.62, 23.11, 30.43, 0.096, -0.992, 0.128, 18:56:15.763, 1590857775763
51, 1.08, 8.17, 2.24, 2.07, 0.096, -0.992, 0.128, 18:56:15.779, 1590857775779
52, -9.71, -0.31, -4.54, -2.74, 0.096, -0.992, 0.128, 18:56:15.779, 1590857775779
53, 2.43, 10.05, 3.75, 7.02, 0.096, -0.992, 0.128, 18:56:15.779, 1590857775779
54, 25.32, 30.79, 22.79, 25.49, 0.096, -0.992, 0.128, 18:56:15.779, 1590857775779
55, 0.68, 4.02, 5.57, 11.23, 0.096, -0.992, 0.128, 18:56:15.809, 1590857775809
56, -11.21, -5.61, -8.76, -7.68, 0.096, -0.992, 0.128, 18:56:15.809, 1590857775809
57, 4.41, 10.82, 7.02, 6.24, 0.096, -0.992, 0.128, 18:56:15.810, 1590857775810
58, 27.10, 30.36, 24.19, 28.96, 0.096, -0.992, 0.128, 18:56:15.810, 1590857775810
59, 2.53, 2.52, -1.39, 7.16, 0.096, -0.992, 0.128, 18:56:15.810, 1590857775810
60, -7.88, -1.47, -8.05, -5.17, 0.096, -0.992, 0.128, 18:56:15.810, 1590857775810
61, 3.68, 2.40, 5.42, 8.06, 0.096, -0.992, 0.128, 18:56:15.823, 1590857775823
62, 28.87, 29.11, 26.85, 34.28, 0.096, -0.992, 0.128, 18:56:15.823, 1590857775823
63, -4.09, 7.47, 1.99, 2.87, 0.096, -0.992, 0.128, 18:56:15.838, 1590857775838
64, -3.22, 0.53, -0.10, -6.80, 0.096, -0.992, 0.128, 18:56:15.838, 1590857775838
65, 1.42, 8.38, 4.82, 8.40, 0.096, -0.992, 0.128, 18:56:15.839, 1590857775839
66, 27.69, 28.55, 24.90, 30.12, 0.192, -1.008, 0.192, 18:56:15.839, 1590857775839
67, -3.83, 6.70, 3.88, 3.63, 0.192, -1.008, 0.192, 18:56:15.853, 1590857775853
68, -10.17, -3.79, -10.40, -3.52, 0.192, -1.008, 0.192, 18:56:15.853, 1590857775853
69, 0.63, 6.92, 4.61, 8.36, 0.192, -1.008, 0.192, 18:56:15.869, 1590857775869
70, 28.80, 26.71, 29.36, 29.00, 0.192, -1.008, 0.192, 18:56:15.869, 1590857775869
71, -0.16, 6.81, -0.96, 5.28, 0.192, -1.008, 0.192, 18:56:15.869, 1590857775869
72, -14.42, -4.47, -8.58, -9.94, 0.192, -1.008, 0.192, 18:56:15.869, 1590857775869
73, 2.09, 6.08, 7.32, 9.63, 0.192, -1.008, 0.192, 18:56:15.883, 1590857775883
74, 28.64, 25.90, 21.52, 30.62, 0.192, -1.008, 0.192, 18:56:15.883, 1590857775883
75, -0.27, 4.83, 1.53, 5.82, 0.192, -1.008, 0.192, 18:56:15.899, 1590857775899
76, -8.56, -0.19, -1.88, -4.41, 0.192, -1.008, 0.192, 18:56:15.899, 1590857775899
77, 5.29, 6.85, 2.50, 8.87, 0.192, -1.008, 0.192, 18:56:15.899, 1590857775899
78, 25.92, 24.58, 22.18, 29.65, 0.192, -1.008, 0.192, 18:56:15.899, 1590857775899
79, -1.42, 5.35, -0.60, 7.11, 0.192, -1.008, 0.192, 18:56:15.913, 1590857775913
80, -7.81, -1.64, -11.59, -9.15, 0.192, -1.008, 0.192, 18:56:15.913, 1590857775913
81, 1.42, 11.71, 2.58, 8.55, 0.192, -1.008, 0.192, 18:56:15.945, 1590857775945
82, 24.03, 31.21, 25.08, 28.64, 0.192, -1.008, 0.192, 18:56:15.945, 1590857775945
83, 5.28, 6.55, 3.92, 2.57, 0.192, -1.008, 0.192, 18:56:15.945, 1590857775945
84, -3.96, -3.81, -7.46, 2.79, 0.192, -1.008, 0.192, 18:56:15.945, 1590857775945
85, 7.13, 11.16, 7.36, 6.71, 0.192, -1.008, 0.192, 18:56:15.946, 1590857775946
86, 26.27, 30.66, 32.90, 26.51, 0.112, -1.008, 0.224, 18:56:15.946, 1590857775946
87, 5.43, 6.59, 3.51, 2.12, 0.112, -1.008, 0.224, 18:56:15.947, 1590857775947
88, -5.86, -2.10, -8.02, -2.60, 0.112, -1.008, 0.224, 18:56:15.947, 1590857775947
89, 3.34, 6.31, 5.18, 4.50, 0.112, -1.008, 0.224, 18:56:15.958, 1590857775958
90, 31.81, 33.66, 26.33, 29.13, 0.112, -1.008, 0.224, 18:56:15.958, 1590857775958
91, 0.37, 6.70, 7.76, 4.12, 0.112, -1.008, 0.224, 18:56:15.973, 1590857775973
92, -8.38, -2.58, -7.10, -8.00, 0.112, -1.008, 0.224, 18:56:15.973, 1590857775973
93, 3.10, 6.93, 6.58, 4.83, 0.112, -1.008, 0.224, 18:56:15.989, 1590857775989
94, 33.98, 27.96, 30.29, 27.69, 0.112, -1.008, 0.224, 18:56:15.989, 1590857775989
95, 0.87, 8.97, -4.67, 5.49, 0.112, -1.008, 0.224, 18:56:15.990, 1590857775990
96, -7.12, 4.04, -4.76, -5.10, 0.112, -1.008, 0.224, 18:56:15.990, 1590857775990
97, 5.90, 9.25, 2.14, 9.73, 0.112, -1.008, 0.224, 18:56:16.003, 1590857776003
98, 29.07, 30.36, 21.78, 29.45, 0.112, -1.008, 0.224, 18:56:16.003, 1590857776003
99, -5.08, 5.79, 1.54, 6.86, 0.112, -1.008, 0.224, 18:56:16.018, 1590857776018
100, -8.93, 1.44, 0.01, 0.13, 0.112, -1.008, 0.224, 18:56:16.018, 1590857776018
101, 5.24, 5.30, 3.66, 5.62, 0.112, -1.008, 0.224, 18:56:16.019, 1590857776019
102, 20.97, 29.83, 24.29, 27.40, 0.112, -1.008, 0.224, 18:56:16.019, 1590857776019
103, 0.13, 6.92, -2.19, 3.95, 0.112, -1.008, 0.224, 18:56:16.033, 1590857776033
104, -9.66, -4.44, -7.41, -4.77, 0.112, -1.008, 0.224, 18:56:16.033, 1590857776033
105, 6.48, 9.64, 10.05, 14.30, 0.112, -1.008, 0.224, 18:56:16.048, 1590857776048
106, 27.52, 29.64, 29.77, 31.72, 0.080, -1.008, 0.240, 18:56:16.048, 1590857776048
107, 0.39, 4.30, 4.23, 3.30, 0.080, -1.008, 0.240, 18:56:16.049, 1590857776049
108, -7.43, -0.69, -9.83, -2.64, 0.080, -1.008, 0.240, 18:56:16.049, 1590857776049
109, 3.41, 10.45, 2.31, 8.85, 0.080, -1.008, 0.240, 18:56:16.063, 1590857776063
110, 23.99, 29.95, 26.07, 30.78, 0.080, -1.008, 0.240, 18:56:16.063, 1590857776063
111, 2.55, 5.06, 1.17, 6.62, 0.080, -1.008, 0.240, 18:56:16.079, 1590857776079
112, -6.51, -0.17, -2.57, -2.37, 0.080, -1.008, 0.240, 18:56:16.079, 1590857776079
113, 4.90, 11.65, 2.92, 5.54, 0.080, -1.008, 0.240, 18:56:16.080, 1590857776080
114, 28.76, 31.56, 23.45, 34.32, 0.080, -1.008, 0.240, 18:56:16.080, 1590857776080
115, -0.18, 4.99, 4.73, 3.75, 0.080, -1.008, 0.240, 18:56:16.093, 1590857776093
116, -11.78, -4.62, -2.96, -2.66, 0.080, -1.008, 0.240, 18:56:16.093, 1590857776093
117, 3.51, 11.66, 5.80, 8.60, 0.080, -1.008, 0.240, 18:56:16.108, 1590857776108
118, 30.99, 27.17, 20.99, 30.24, 0.080, -1.008, 0.240, 18:56:16.108, 1590857776108
119, 3.01, 3.33, 1.01, 3.43, 0.080, -1.008, 0.240, 18:56:16.109, 1590857776109
120, -7.37, -2.61, -4.26, -3.90, 0.080, -1.008, 0.240, 18:56:16.109, 1590857776109
121, 3.81, 3.71, 1.10, 9.55, 0.080, -1.008, 0.240, 18:56:16.123, 1590857776123
122, 25.64, 22.82, 28.09, 28.02, 0.080, -1.008, 0.240, 18:56:16.123, 1590857776123
123, 0.77, 4.02, 3.71, 1.97, 0.080, -1.008, 0.240, 18:56:16.138, 1590857776138
124, -9.51, -4.03, -9.03, -2.70, 0.080, -1.008, 0.240, 18:56:16.138, 1590857776138
125, 10.83, 11.00, 4.24, 11.77, 0.080, -1.008, 0.240, 18:56:16.140, 1590857776140
126, 29.77, 30.96, 27.11, 29.75, 0.064, -1.008, 0.256, 18:56:16.140, 1590857776140
127, 1.05, 9.30, -0.11, 6.16, 0.064, -1.008, 0.256, 18:56:16.153, 1590857776153
128, -5.42, -3.44, -8.55, -4.17, 0.064, -1.008, 0.256, 18:56:16.153, 1590857776153
129, 7.43, 8.45, 1.74, 11.74, 0.064, -1.008, 0.256, 18:56:16.168, 1590857776168
130, 25.65, 31.34, 27.55, 32.49, 0.064, -1.008, 0.256, 18:56:16.168, 1590857776168
131, -3.17, 5.66, 5.24, 8.12, 0.064, -1.008, 0.256, 18:56:16.169, 1590857776169
132, -7.05, -1.06, -3.91, -1.72, 0.064, -1.008, 0.256, 18:56:16.169, 1590857776169
133, -0.27, 8.33, 9.31, 7.69, 0.064, -1.008, 0.256, 18:56:16.199, 1590857776199
134, 20.92, 29.62, 29.37, 26.52, 0.064, -1.008, 0.256, 18:56:16.199, 1590857776199
135, 0.96, 1.46, -1.89, 5.27, 0.064, -1.008, 0.256, 18:56:16.200, 1590857776200
136, -6.88, 0.81, -4.86, -1.42, 0.064, -1.008, 0.256, 18:56:16.200, 1590857776200
137, 4.06, 9.66, 3.21, 5.54, 0.064, -1.008, 0.256, 18:56:16.200, 1590857776200
138, 31.03, 24.80, 24.71, 25.90, 0.064, -1.008, 0.256, 18:56:16.200, 1590857776200
139, 4.22, 5.48, 4.15, 6.23, 0.064, -1.008, 0.256, 18:56:16.213, 1590857776213
140, -9.31, 0.47, -0.08, -2.08, 0.064, -1.008, 0.256, 18:56:16.213, 1590857776213
141, 0.05, 8.58, 6.30, 5.25, 0.064, -1.008, 0.256, 18:56:16.229, 1590857776229
142, 27.16, 28.39, 28.72, 36.75, 0.064, -1.008, 0.256, 18:56:16.229, 1590857776229
143, -2.21, 7.26, 1.58, 6.86, 0.064, -1.008, 0.256, 18:56:16.230, 1590857776230
144, -9.21, -2.23, -9.73, -3.95, 0.064, -1.008, 0.256, 18:56:16.230, 1590857776230
145, 5.72, 13.28, 5.85, 8.03, 0.064, -1.008, 0.256, 18:56:16.243, 1590857776243
146, 32.28, 29.80, 26.47, 37.42, 0.048, -1.008, 0.272, 18:56:16.243, 1590857776243
147, 0.91, 0.14, 1.02, 0.71, 0.048, -1.008, 0.272, 18:56:16.258, 1590857776258
148, -0.62, -1.74, -2.30, -2.54, 0.048, -1.008, 0.272, 18:56:16.258, 1590857776258
149, 4.71, 10.42, 5.89, 5.13, 0.048, -1.008, 0.272, 18:56:16.259, 1590857776259
150, 27.93, 27.99, 28.12, 31.11, 0.048, -1.008, 0.272, 18:56:16.259, 1590857776259
151, -0.46, 5.23, 1.48, 2.45, 0.048, -1.008, 0.272, 18:56:16.273, 1590857776273
152, -11.40, -2.69, -6.44, -4.59, 0.048, -1.008, 0.272, 18:56:16.273, 1590857776273
153, 6.44, 5.64, 4.02, 3.91, 0.048, -1.008, 0.272, 18:56:16.289, 1590857776289
154, 30.98, 30.90, 26.21, 30.18, 0.048, -1.008, 0.272, 18:56:16.289, 1590857776289
155, 1.02, 4.82, -0.71, 0.67, 0.048, -1.008, 0.272, 18:56:16.289, 1590857776289
156, -12.06, -0.42, -2.60, -3.05, 0.048, -1.008, 0.272, 18:56:16.289, 1590857776289
157, 4.53, 9.30, 7.01, 7.75, 0.048, -1.008, 0.272, 18:56:16.303, 1590857776303
158, 22.77, 22.86, 22.15, 30.18, 0.048, -1.008, 0.272, 18:56:16.303, 1590857776303
159, 4.51, 4.96, 1.97, 5.68, 0.048, -1.008, 0.272, 18:56:16.318, 1590857776318
160, -7.12, 1.19, -5.63, -2.97, 0.048, -1.008, 0.272, 18:56:16.318, 1590857776318
161, 6.42, 4.00, 8.04, 10.10, 0.048, -1.008, 0.272, 18:56:16.319, 1590857776319
162, 26.80, 35.84, 30.94, 28.51, 0.048, -1.008, 0.272, 18:56:16.319, 1590857776319
163, 5.22, 5.15, -1.29, 2.87, 0.048, -1.008, 0.272, 18:56:16.333, 1590857776333
164, -11.54, -3.99, -12.47, -3.18, 0.048, -1.008, 0.272, 18:56:16.333, 1590857776333
165, 3.84, 13.53, 9.01, 10.62, 0.048, -1.008, 0.272, 18:56:16.348, 1590857776348
166, 28.11, 35.04, 27.70, 29.77, 0.048, -1.008, 0.288, 18:56:16.348, 1590857776348
167, 1.23, 2.44, -1.04, 2.39, 0.048, -1.008, 0.288, 18:56:16.349, 1590857776349
168, -7.79, 0.01, -4.83, -6.06, 0.048, -1.008, 0.288, 18:56:16.349, 1590857776349
169, 5.64, 12.93, 3.59, 6.28, 0.048, -1.008, 0.288, 18:56:16.363, 1590857776363
170, 29.09, 29.15, 20.79, 29.92, 0.048, -1.008, 0.288, 18:56:16.363, 1590857776363
171, -0.43, 10.49, -0.52, 2.08, 0.048, -1.008, 0.288, 18:56:16.379, 1590857776379
172, -2.94, -1.83, -9.07, -1.45, 0.048, -1.008, 0.288, 18:56:16.379, 1590857776379
173, -0.94, 8.07, 6.11, 7.29, 0.048, -1.008, 0.288, 18:56:16.379, 1590857776379
174, 31.66, 28.51, 28.80, 29.22, 0.048, -1.008, 0.288, 18:56:16.379, 1590857776379
175, -3.00, 3.07, 3.28, 6.89, 0.048, -1.008, 0.288, 18:56:16.393, 1590857776393
176, -12.25, 0.00, -6.97, 0.89, 0.048, -1.008, 0.288, 18:56:16.393, 1590857776393
177, 11.81, 11.39, 4.89, 8.39, 0.048, -1.008, 0.288, 18:56:16.408, 1590857776408
178, 20.96, 29.67, 24.54, 31.19, 0.048, -1.008, 0.288, 18:56:16.408, 1590857776408
179, -0.35, 7.66, 0.37, 2.25, 0.048, -1.008, 0.288, 18:56:16.410, 1590857776410
180, -9.04, 1.29, -4.76, -3.18, 0.048, -1.008, 0.288, 18:56:16.410, 1590857776410
181, -0.44, 9.22, 3.15, 8.72, 0.048, -1.008, 0.288, 18:56:16.423, 1590857776423
182, 24.00, 30.38, 26.01, 25.02, 0.048, -1.008, 0.288, 18:56:16.423, 1590857776423
183, -0.12, 5.12, 4.42, 6.00, 0.048, -1.008, 0.288, 18:56:16.439, 1590857776439
184, -8.99, 1.47, -5.80, -3.11, 0.048, -1.008, 0.288, 18:56:16.439, 1590857776439
185, 3.70, 8.48, -0.47, 7.50, 0.048, -1.008, 0.288, 18:56:16.440, 1590857776440
186, 29.10, 29.17, 31.43, 29.65, 0.048, -1.008, 0.288, 18:56:16.440, 1590857776440
187, -0.33, 10.58, 3.93, 4.43, 0.048, -1.008, 0.288, 18:56:16.453, 1590857776453
188, -11.03, -3.64, -3.08, -5.66, 0.048, -1.008, 0.288, 18:56:16.453, 1590857776453
189, 4.39, 8.86, 10.06, 9.75, 0.048, -1.008, 0.288, 18:56:16.468, 1590857776468
190, 30.55, 31.59, 23.39, 26.43, 0.048, -1.008, 0.288, 18:56:16.468, 1590857776468
191, -5.42, 7.39, -1.56, 6.86, 0.048, -1.008, 0.288, 18:56:16.469, 1590857776469
192, -6.94, 1.31, -2.12, -9.88, 0.048, -1.008, 0.288, 18:56:16.469, 1590857776469
193, 5.59, 11.33, 4.82, 5.41, 0.048, -1.008, 0.288, 18:56:16.483, 1590857776483
194, 23.67, 30.92, 24.30, 29.05, 0.048, -1.008, 0.288, 18:56:16.483, 1590857776483
195, -0.70, 5.36, 0.36, 6.52, 0.048, -1.008, 0.288, 18:56:16.499, 1590857776499
196, -7.78, 0.83, -6.29, -7.76, 0.048, -1.008, 0.288, 18:56:16.499, 1590857776499
197, 5.47, 7.67, 7.57, 2.41, 0.048, -1.008, 0.288, 18:56:16.499, 1590857776499
198, 25.17, 34.56, 29.46, 27.81, 0.048, -1.008, 0.288, 18:56:16.499, 1590857776499
199, 0.13, 6.72, 4.36, 1.64, 0.048, -1.008, 0.288, 18:56:16.513, 1590857776513
200, -2.35, 0.04, -7.03, -5.97, 0.048, -1.008, 0.288, 18:56:16.513, 1590857776513
0, 4.05, 13.14, 6.31, 8.02, 0.048, -1.008, 0.288, 18:56:16.514, 1590857776514
1, 31.78, 35.92, 24.22, 34.01, 0.048, -1.008, 0.288, 18:56:16.528, 1590857776528
2, -3.74, 2.37, 1.44, 7.53, 0.048, -1.008, 0.288, 18:56:16.528, 1590857776528
3, -12.85, 3.72, -2.56, -2.49, 0.048, -1.008, 0.288, 18:56:16.560, 1590857776560
4, 2.32, 9.38, 6.56, 7.91, 0.048, -1.008, 0.288, 18:56:16.560, 1590857776560
5, 31.25, 28.34, 26.82, 29.45, 0.048, -1.008, 0.288, 18:56:16.560, 1590857776560
6, -3.26, 5.68, 5.44, 7.27, 0.048, -1.008, 0.304, 18:56:16.560, 1590857776560
7, -7.20, -1.17, -4.31, -3.07, 0.048, -1.008, 0.304, 18:56:16.561, 1590857776561
8, 6.66, 8.22, 5.08, 9.21, 0.048, -1.008, 0.304, 18:56:16.561, 1590857776561
9, 27.56, 28.59, 25.06, 29.08, 0.048, -1.008, 0.304, 18:56:16.562, 1590857776562
10, -1.51, 7.62, -0.47, 3.94, 0.048, -1.008, 0.304, 18:56:16.562, 1590857776562
11, -12.65, -2.00, -10.23, -6.17, 0.048, -1.008, 0.304, 18:56:16.573, 1590857776573
12, 2.79, 10.54, 3.62, 8.54, 0.048, -1.008, 0.304, 18:56:16.573, 1590857776573
13, 31.21, 31.33, 21.72, 34.58, 0.048, -1.008, 0.304, 18:56:16.588, 1590857776588
14, -2.00, 8.81, -2.36, 7.99, 0.048, -1.008, 0.304, 18:56:16.588, 1590857776588
15, -7.08, -3.36, -11.21, -3.58, 0.048, -1.008, 0.304, 18:56:16.603, 1590857776603
16, -1.20, 5.16, 4.18, 7.77, 0.048, -1.008, 0.304, 18:56:16.603, 1590857776603
17, 27.28, 27.98, 22.56, 31.45, 0.048, -1.008, 0.304, 18:56:16.604, 1590857776604
18, 0.98, 1.74, 5.85, 6.52, 0.048, -1.008, 0.304, 18:56:16.604, 1590857776604
19, -8.79, -0.57, -6.30, -2.84, 0.048, -1.008, 0.304, 18:56:16.633, 1590857776633
20, 3.03, 7.86, 3.00, 9.34, 0.048, -1.008, 0.304, 18:56:16.633, 1590857776633
21, 30.07, 31.31, 28.38, 33.23, 0.048, -1.008, 0.304, 18:56:16.650, 1590857776650
22, -2.53, 4.95, 6.53, 9.25, 0.048, -1.008, 0.304, 18:56:16.650, 1590857776650
23, -7.52, -2.65, -7.50, -1.83, 0.048, -1.008, 0.304, 18:56:16.650, 1590857776650
24, 8.91, 9.04, 2.51, 6.87, 0.048, -1.008, 0.304, 18:56:16.650, 1590857776650
25, 26.31, 32.02, 28.37, 27.03, 0.048, -1.008, 0.304, 18:56:16.651, 1590857776651
26, 4.82, 1.53, 1.71, 1.78, 0.064, -1.008, 0.304, 18:56:16.651, 1590857776651
27, -9.59, -1.40, -9.60, -7.64, 0.064, -1.008, 0.304, 18:56:16.652, 1590857776652
28, 2.37, 6.77, 3.61, 5.74, 0.064, -1.008, 0.304, 18:56:16.652, 1590857776652
29, 22.88, 27.61, 27.96, 32.39, 0.064, -1.008, 0.304, 18:56:16.663, 1590857776663
30, 2.62, 4.50, 8.86, 5.24, 0.064, -1.008, 0.304, 18:56:16.663, 1590857776663
31, -6.06, -2.40, -1.09, -2.03, 0.064, -1.008, 0.304, 18:56:16.678, 1590857776678
32, 2.10, 7.45, 9.39, 8.52, 0.064, -1.008, 0.304, 18:56:16.678, 1590857776678
33, 27.05, 30.76, 24.72, 33.64, 0.064, -1.008, 0.304, 18:56:16.693, 1590857776693
34, 5.87, 6.26, -2.83, 5.15, 0.064, -1.008, 0.304, 18:56:16.694, 1590857776694
35, -2.83, 1.24, -5.44, -3.28, 0.064, -1.008, 0.304, 18:56:16.694, 1590857776694
36, 4.98, 7.41, 4.79, 7.68, 0.064, -1.008, 0.304, 18:56:16.694, 1590857776694
37, 27.79, 31.30, 29.02, 30.89, 0.064, -1.008, 0.304, 18:56:16.708, 1590857776708
38, -1.30, 2.91, -2.21, 5.93, 0.064, -1.008, 0.304, 18:56:16.708, 1590857776708
39, -7.82, -3.05, -5.53, -2.58, 0.064, -1.008, 0.304, 18:56:16.724, 1590857776724
40, 3.66, 8.26, 4.78, 5.82, 0.064, -1.008, 0.304, 18:56:16.724, 1590857776724
41, 24.38, 28.69, 26.77, 32.22, 0.064, -1.008, 0.304, 18:56:16.724, 1590857776724
42, -2.45, 5.96, 0.13, 3.12, 0.064, -1.008, 0.304, 18:56:16.724, 1590857776724
43, -5.98, -0.20, -3.78, 0.55, 0.064, -1.008, 0.304, 18:56:16.738, 1590857776738
44, -0.83, 7.32, 3.49, 4.24, 0.064, -1.008, 0.304, 18:56:16.738, 1590857776738
45, 29.62, 27.21, 28.25, 30.74, 0.064, -1.008, 0.304, 18:56:16.753, 1590857776753
46, 1.09, 5.78, 4.96, 9.93, 0.064, -1.008, 0.288, 18:56:16.753, 1590857776753
47, -9.36, -1.79, -2.84, -1.40, 0.064, -1.008, 0.288, 18:56:16.754, 1590857776754
48, 5.38, 5.64, 8.49, 10.18, 0.064, -1.008, 0.288, 18:56:16.754, 1590857776754
49, 27.52, 26.72, 29.13, 31.35, 0.064, -1.008, 0.288, 18:56:16.768, 1590857776768
50, 1.49, 1.34, 3.63, 5.38, 0.064, -1.008, 0.288, 18:56:16.768, 1590857776768
51, -4.24, -1.84, -0.21, -7.13, 0.064, -1.008, 0.288, 18:56:16.784, 1590857776784
52, 6.76, 7.29, 6.00, 5.27, 0.064, -1.008, 0.288, 18:56:16.784, 1590857776784
53, 30.68, 30.13, 23.29, 31.70, 0.064, -1.008, 0.288, 18:56:16.785, 1590857776785
54, 3.81, 4.52, 7.20, 4.20, 0.064, -1.008, 0.288, 18:56:16.785, 1590857776785
55, -5.92, -2.59, -4.73, -1.17, 0.064, -1.008, 0.288, 18:56:16.798, 1590857776798
56, 2.58, 5.82, 3.84, 5.18, 0.064, -1.008, 0.288, 18:56:16.798, 1590857776798
57, 23.99, 30.61, 24.79, 33.63, 0.064, -1.008, 0.288, 18:56:16.813, 1590857776813
58, 5.02, 2.79, 5.10, 3.28, 0.064, -1.008, 0.288, 18:56:16.813, 1590857776813
59, -10.95, -5.13, -6.00, -0.44, 0.064, -1.008, 0.288, 18:56:16.814, 1590857776814
60, 0.59, 11.98, 6.84, 7.95, 0.064, -1.008, 0.288, 18:56:16.814, 1590857776814
61, 26.79, 29.66, 22.78, 33.69, 0.064, -1.008, 0.288, 18:56:16.828, 1590857776828
62, -6.95, 6.28, -1.48, 3.33, 0.064, -1.008, 0.288, 18:56:16.828, 1590857776828
63, -4.39, -0.44, -3.22, -4.24, 0.064, -1.008, 0.288, 18:56:16.843, 1590857776843
64, 5.16, 6.76, 5.48, 10.12, 0.064, -1.008, 0.288, 18:56:16.843, 1590857776843
65, 29.53, 31.74, 22.54, 29.66, 0.064, -1.008, 0.288, 18:56:16.858, 1590857776858
66, 1.77, 6.39, -3.05, 3.77, 0.064, -1.008, 0.288, 18:56:16.858, 1590857776858
67, -8.10, 1.70, -2.23, -6.80, 0.064, -1.008, 0.288, 18:56:16.859, 1590857776859
68, 0.83, 5.48, 5.67, 3.37, 0.064, -1.008, 0.288, 18:56:16.859, 1590857776859
69, 26.22, 28.56, 25.15, 30.44, 0.064, -1.008, 0.288, 18:56:16.874, 1590857776874
70, 0.02, 2.81, 4.69, 5.29, 0.064, -1.008, 0.288, 18:56:16.874, 1590857776874
71, -7.66, -7.04, -6.79, -6.57, 0.064, -1.008, 0.288, 18:56:16.874, 1590857776874
72, 8.67, 8.63, 7.63, 5.81, 0.064, -1.008, 0.288, 18:56:16.874, 1590857776874
73, 27.05, 32.08, 24.88, 27.85, 0.064, -1.008, 0.288, 18:56:16.888, 1590857776888
74, -1.94, 4.87, -1.84, 1.93, 0.064, -1.008, 0.288, 18:56:16.888, 1590857776888
75, -7.59, -0.87, -4.84, -3.67, 0.064, -1.008, 0.288, 18:56:16.904, 1590857776904
76, 6.65, 10.21, 0.78, 4.80, 0.064, -1.008, 0.288, 18:56:16.904, 1590857776904
77, 31.65, 29.97, 25.70, 31.04, 0.064, -1.008, 0.288, 18:56:16.904, 1590857776904
78, -1.82, 4.41, 0.88, 5.08, 0.064, -1.008, 0.288, 18:56:16.904, 1590857776904
79, -6.19, -3.86, -0.82, -3.34, 0.064, -1.008, 0.288, 18:56:16.918, 1590857776918
80, 2.43, 11.42, 1.60, 4.73, 0.064, -1.008, 0.288, 18:56:16.918, 1590857776918
81, 29.73, 30.31, 25.18, 31.40, 0.064, -1.008, 0.288, 18:56:16.934, 1590857776934
82, -0.46, 8.09, 3.65, 2.50, 0.064, -1.008, 0.288, 18:56:16.934, 1590857776934
83, -6.74, -0.56, -5.49, -5.99, 0.064, -1.008, 0.288, 18:56:16.934, 1590857776934
84, 2.03, 7.73, 3.53, 7.69, 0.064, -1.008, 0.288, 18:56:16.934, 1590857776934
85, 29.77, 30.70, 27.65, 30.65, 0.064, -1.008, 0.288, 18:56:16.948, 1590857776948
86, 1.24, 3.17, -1.40, 1.92, 0.064, -1.008, 0.288, 18:56:16.948, 1590857776948
87, -7.54, -4.56, -5.95, 0.10, 0.064, -1.008, 0.288, 18:56:16.963, 1590857776963
88, 8.63, 7.80, 3.14, 9.63, 0.064, -1.008, 0.288, 18:56:16.963, 1590857776963
89, 28.12, 29.77, 34.29, 30.27, 0.064, -1.008, 0.288, 18:56:16.964, 1590857776964
90, -2.64, 7.42, 2.13, 2.27, 0.064, -1.008, 0.288, 18:56:16.964, 1590857776964
91, -8.35, -4.83, -5.86, -6.17, 0.064, -1.008, 0.288, 18:56:16.978, 1590857776978
92, 4.56, 5.67, 4.70, 5.05, 0.064, -1.008, 0.288, 18:56:16.978, 1590857776978
93, 28.68, 29.51, 24.92, 32.65, 0.064, -1.008, 0.288, 18:56:16.993, 1590857776993
94, -3.10, 4.73, 1.80, 6.17, 0.064, -1.008, 0.288, 18:56:16.993, 1590857776993
95, -9.63, -3.41, -7.24, -4.66, 0.064, -1.008, 0.288, 18:56:16.994, 1590857776994
96, 4.68, 12.69, 7.17, 8.90, 0.064, -1.008, 0.288, 18:56:16.994, 1590857776994
97, 25.44, 31.14, 30.36, 31.89, 0.064, -1.008, 0.288, 18:56:17.008, 1590857777008
98, -2.25, 7.42, 2.30, 6.58, 0.064, -1.008, 0.288, 18:56:17.008, 1590857777008
99, -8.02, 1.11, -3.54, -4.59, 0.064, -1.008, 0.288, 18:56:17.055, 1590857777055
100, 7.65, 2.75, 6.37, 9.42, 0.064, -1.008, 0.288, 18:56:17.055, 1590857777055
101, 32.03, 25.35, 27.61, 30.28, 0.064, -1.008, 0.288, 18:56:17.056, 1590857777056
102, -3.59, 5.69, 4.54, -0.90, 0.064, -1.008, 0.288, 18:56:17.056, 1590857777056
103, -5.26, 2.57, -4.19, -4.32, 0.064, -1.008, 0.288, 18:56:17.057, 1590857777057
104, 11.71, 9.17, 4.42, 8.85, 0.064, -1.008, 0.288, 18:56:17.057, 1590857777057
105, 27.48, 28.92, 24.52, 34.52, 0.064, -1.008, 0.288, 18:56:17.057, 1590857777057
106, 2.53, 10.34, 3.68, 5.22, 0.048, -1.008, 0.288, 18:56:17.057, 1590857777057
107, -9.82, -2.78, -5.21, -1.84, 0.048, -1.008, 0.288, 18:56:17.100, 1590857777100
108, 6.63, 13.80, 5.68, 10.63, 0.048, -1.008, 0.288, 18:56:17.100, 1590857777100
109, 32.83, 28.43, 22.13, 30.96, 0.048, -1.008, 0.288, 18:56:17.101, 1590857777101
110, 2.43, 8.53, 1.36, 3.70, 0.048, -1.008, 0.288, 18:56:17.101, 1590857777101
111, -13.41, -1.80, -7.17, -5.18, 0.048, -1.008, 0.288, 18:56:17.102, 1590857777102
112, 6.41, 9.81, 10.03, 11.02, 0.048, -1.008, 0.288, 18:56:17.102, 1590857777102
113, 33.14, 34.51, 27.98, 31.88, 0.048, -1.008, 0.288, 18:56:17.102, 1590857777102
114, 2.35, 7.45, -1.29, 2.83, 0.048, -1.008, 0.288, 18:56:17.102, 1590857777102
115, -7.11, -0.32, -6.26, -3.54, 0.048, -1.008, 0.288, 18:56:17.114, 1590857777114
116, 5.72, 5.70, 4.12, 5.34, 0.048, -1.008, 0.288, 18:56:17.114, 1590857777114
117, 28.86, 31.50, 26.30, 26.06, 0.048, -1.008, 0.288, 18:56:17.115, 1590857777115
118, -2.72, 4.69, 1.42, 5.17, 0.048, -1.008, 0.288, 18:56:17.115, 1590857777115
119, -6.89, -0.36, -0.95, -3.59, 0.048, -1.008, 0.288, 18:56:17.116, 1590857777116
120, 3.04, 7.32, 2.35, 2.20, 0.048, -1.008, 0.288, 18:56:17.116, 1590857777116
121, 30.43, 29.09, 24.20, 26.21, 0.048, -1.008, 0.288, 18:56:17.128, 1590857777128
122, -1.47, 7.40, -0.10, 0.18, 0.048, -1.008, 0.288, 18:56:17.128, 1590857777128
123, -12.51, -6.69, -11.98, -4.85, 0.048, -1.008, 0.288, 18:56:17.143, 1590857777143
124, 1.39, 13.18, 7.06, 6.49, 0.048, -1.008, 0.288, 18:56:17.143, 1590857777143
125, 30.07, 34.45, 19.02, 29.51, 0.048, -1.008, 0.288, 18:56:17.144, 1590857777144
126, -3.95, 5.01, 3.38, 1.08, 0.048, -1.008, 0.272, 18:56:17.144, 1590857777144
127, -4.52, -0.86, -5.05, -4.39, 0.048, -1.008, 0.272, 18:56:17.174, 1590857777174
128, 7.50, 4.02, 6.68, 12.81, 0.048, -1.008, 0.272, 18:56:17.174, 1590857777174
129, 27.64, 31.98, 24.27, 33.21, 0.048, -1.008, 0.272, 18:56:17.175, 1590857777175
130, 0.71, 1.20, 1.59, 7.71, 0.048, -1.008, 0.272, 18:56:17.175, 1590857777175
131, -8.48, 0.59, -4.31, -1.67, 0.048, -1.008, 0.272, 18:56:17.176, 1590857777176
132, 1.23, 8.88, 5.72, 10.27, 0.048, -1.008, 0.272, 18:56:17.176, 1590857777176
133, 29.61, 33.14, 32.47, 31.63, 0.048, -1.008, 0.272, 18:56:17.204, 1590857777204
134, -0.82, 1.72, 1.88, 7.33, 0.048, -1.008, 0.272, 18:56:17.204, 1590857777204
135, -11.05, -4.49, -11.17, -6.24, 0.048, -1.008, 0.272, 18:56:17.205, 1590857777205
136, 6.21, 12.94, 4.28, 10.53, 0.048, -1.008, 0.272, 18:56:17.205, 1590857777205
137, 30.81, 30.01, 23.19, 32.30, 0.048, -1.008, 0.272, 18:56:17.206, 1590857777206
138, -0.81, 6.10, -0.86, -0.26, 0.048, -1.008, 0.272, 18:56:17.206, 1590857777206
139, -7.30, 1.49, -4.12, -2.69, 0.048, -1.008, 0.272, 18:56:17.218, 1590857777218
140, 7.00, 13.13, 5.35, 5.90, 0.048, -1.008, 0.272, 18:56:17.218, 1590857777218
141, 25.03, 27.21, 23.67, 31.04, 0.048, -1.008, 0.272, 18:56:17.234, 1590857777234
142, 1.44, 7.66, -1.02, 8.93, 0.048, -1.008, 0.272, 18:56:17.234, 1590857777234
143, -5.79, -1.14, -4.85, -2.72, 0.048, -1.008, 0.272, 18:56:17.234, 1590857777234
144, 9.58, 10.15, 2.68, 8.68, 0.048, -1.008, 0.272, 18:56:17.234, 1590857777234
145, 31.19, 30.35, 25.66, 30.00, 0.048, -1.008, 0.272, 18:56:17.248, 1590857777248
146, -5.77, 3.62, -3.78, 1.74, 0.048, -0.992, 0.288, 18:56:17.248, 1590857777248
147, -8.35, 4.24, -5.35, -0.69, 0.048, -0.992, 0.288, 18:56:17.263, 1590857777263
148, 5.13, 14.88, 6.01, 14.31, 0.048, -0.992, 0.288, 18:56:17.263, 1590857777263
149, 26.29, 30.20, 23.41, 28.81, 0.048, -0.992, 0.288, 18:56:17.264, 1590857777264
150, 4.34, 6.80, -1.40, 1.53, 0.048, -0.992, 0.288, 18:56:17.264, 1590857777264
151, -9.14, 2.45, -4.72, -2.53, 0.048, -0.992, 0.288, 18:56:17.278, 1590857777278
152, -5.07, 8.27, 3.97, 7.37, 0.048, -0.992, 0.288, 18:56:17.278, 1590857777278
153, 31.25, 28.79, 29.04, 30.18, 0.048, -0.992, 0.288, 18:56:17.293, 1590857777293
154, -2.12, 5.04, 2.13, 2.62, 0.048, -0.992, 0.288, 18:56:17.293, 1590857777293
155, -8.00, -1.94, -4.67, -3.53, 0.048, -0.992, 0.288, 18:56:17.294, 1590857777294
156, 3.92, 12.31, 3.69, 4.64, 0.048, -0.992, 0.288, 18:56:17.294, 1590857777294
157, 30.61, 29.97, 25.20, 29.21, 0.048, -0.992, 0.288, 18:56:17.308, 1590857777308
158, 0.26, 7.24, -2.17, 2.20, 0.048, -0.992, 0.288, 18:56:17.308, 1590857777308
159, -6.77, 0.56, -5.24, -6.67, 0.048, -0.992, 0.288, 18:56:17.324, 1590857777324
160, 6.55, 8.85, 8.27, 5.31, 0.048, -0.992, 0.288, 18:56:17.324, 1590857777324
161, 28.63, 32.28, 25.18, 31.02, 0.048, -0.992, 0.288, 18:56:17.324, 1590857777324
162, 2.53, 1.82, -1.88, 1.84, 0.048, -0.992, 0.288, 18:56:17.324, 1590857777324
163, -8.31, -2.38, -6.04, -1.92, 0.048, -0.992, 0.288, 18:56:17.339, 1590857777339
164, -0.63, 11.72, 3.57, 7.79, 0.048, -0.992, 0.288, 18:56:17.339, 1590857777339
165, 29.49, 30.81, 22.93, 28.90, 0.048, -0.992, 0.288, 18:56:17.370, 1590857777370
166, 0.22, 3.58, 7.72, 2.77, 0.032, -1.008, 0.272, 18:56:17.370, 1590857777370
167, -5.17, -2.23, -5.90, -5.36, 0.032, -1.008, 0.272, 18:56:17.370, 1590857777370
168, 5.26, 9.81, 3.39, 3.36, 0.032, -1.008, 0.272, 18:56:17.370, 1590857777370
169, 30.87, 30.73, 32.33, 29.60, 0.032, -1.008, 0.272, 18:56:17.371, 1590857777371
170, -6.36, 6.07, 2.89, 5.86, 0.032, -1.008, 0.272, 18:56:17.371, 1590857777371
171, -10.89, 0.05, -2.60, -6.52, 0.032, -1.008, 0.272, 18:56:17.372, 1590857777372
172, 4.52, 10.69, 11.15, 4.13, 0.032, -1.008, 0.272, 18:56:17.372, 1590857777372
173, 27.62, 24.54, 26.91, 29.71, 0.032, -1.008, 0.272, 18:56:17.383, 1590857777383
174, 2.60, 8.69, -2.09, 4.40, 0.032, -1.008, 0.272, 18:56:17.383, 1590857777383
175, -5.36, 1.19, -5.35, 0.03, 0.032, -1.008, 0.272, 18:56:17.398, 1590857777398
176, 4.07, 10.24, 6.05, 7.63, 0.032, -1.008, 0.272, 18:56:17.398, 1590857777398
177, 28.10, 27.81, 30.32, 27.14, 0.032, -1.008, 0.272, 18:56:17.414, 1590857777414
178, -0.19, 8.89, 1.51, 5.88, 0.032, -1.008, 0.272, 18:56:17.414, 1590857777414
179, -10.85, 1.38, -7.59, -7.86, 0.032, -1.008, 0.272, 18:56:17.414, 1590857777414
180, 1.86, 11.31, 7.15, 3.87, 0.032, -1.008, 0.272, 18:56:17.414, 1590857777414
181, 32.10, 31.74, 28.67, 29.94, 0.032, -1.008, 0.272, 18:56:17.428, 1590857777428
182, -4.73, 5.59, 1.38, 3.33, 0.032, -1.008, 0.272, 18:56:17.428, 1590857777428
183, -3.70, -1.73, -3.68, -2.08, 0.032, -1.008, 0.272, 18:56:17.443, 1590857777443
184, 8.62, 9.59, 5.51, 10.24, 0.032, -1.008, 0.272, 18:56:17.443, 1590857777443
185, 29.65, 27.39, 22.73, 30.51, 0.032, -1.008, 0.272, 18:56:17.458, 1590857777458
186, -3.35, 6.12, -1.69, 7.71, 0.032, -1.008, 0.272, 18:56:17.458, 1590857777458
187, -8.53, -3.09, -10.74, -1.75, 0.032, -1.008, 0.272, 18:56:17.474, 1590857777474
188, 4.96, 8.22, 4.01, 7.84, 0.032, -1.008, 0.272, 18:56:17.474, 1590857777474
189, 32.14, 31.33, 25.58, 33.80, 0.032, -1.008, 0.272, 18:56:17.475, 1590857777475
190, -3.81, 7.13, -1.79, 5.43, 0.032, -1.008, 0.272, 18:56:17.475, 1590857777475
191, -13.52, -0.42, -8.57, -7.25, 0.032, -1.008, 0.272, 18:56:17.475, 1590857777475
192, 1.99, 5.42, 6.00, 10.41, 0.032, -1.008, 0.272, 18:56:17.475, 1590857777475
193, 32.20, 32.63, 23.17, 34.63, 0.032, -1.008, 0.272, 18:56:17.488, 1590857777488
194, 2.63, 6.83, 1.33, 3.07, 0.032, -1.008, 0.272, 18:56:17.488, 1590857777488
195, -6.65, -1.28, -3.54, -1.83, 0.032, -1.008, 0.272, 18:56:17.504, 1590857777504
196, 2.27, 10.11, 10.99, 7.56, 0.032, -1.008, 0.272, 18:56:17.504, 1590857777504
197, 28.19, 24.89, 21.20, 29.54, 0.032, -1.008, 0.272, 18:56:17.504, 1590857777504
198, 1.20, 6.66, 0.67, 0.29, 0.032, -1.008, 0.272, 18:56:17.504, 1590857777504
199, -7.02, 2.84, -3.65, -4.26, 0.032, -1.008, 0.272, 18:56:17.519, 1590857777519
200, 3.35, 8.67, 8.35, 7.14, 0.032, -1.008, 0.272, 18:56:17.519, 1590857777519
0, 29.89, 27.51, 23.96, 27.44, 0.032, -1.008, 0.272, 18:56:17.519, 1590857777519
1, 1.54, 3.03, 5.33, -0.54, 0.032, -1.008, 0.272, 18:56:17.533, 1590857777533
2, -11.35, -4.76, -6.06, -1.33, 0.032, -1.008, 0.272, 18:56:17.533, 1590857777533
3, 6.68, 9.80, 5.18, 10.33, 0.032, -1.008, 0.272, 18:56:17.549, 1590857777549
4, 32.88, 29.22, 28.10, 32.07, 0.032, -1.008, 0.272, 18:56:17.549, 1590857777549
5, 0.60, 1.41, 0.86, 0.02, 0.032, -1.008, 0.272, 18:56:17.549, 1590857777549
6, -9.81, -3.21, -3.03, -8.97, 0.032, -1.008, 0.272, 18:56:17.549, 1590857777549
7, 0.47, 12.77, 12.58, 8.68, 0.032, -1.008, 0.272, 18:56:17.563, 1590857777563
8, 28.50, 25.02, 26.04, 33.53, 0.032, -1.008, 0.272, 18:56:17.563, 1590857777563
9, 0.57, 7.08, 1.33, 9.25, 0.032, -1.008, 0.272, 18:56:17.595, 1590857777595
10, -8.10, 0.34, -4.52, -4.31, 0.032, -1.008, 0.272, 18:56:17.595, 1590857777595
11, 1.13, 11.92, 7.59, 5.90, 0.032, -1.008, 0.272, 18:56:17.595, 1590857777595
12, 27.42, 27.39, 25.41, 31.86, 0.032, -1.008, 0.272, 18:56:17.595, 1590857777595
13, -0.20, 7.58, 1.08, 5.63, 0.032, -1.008, 0.272, 18:56:17.596, 1590857777596
14, -9.76, -0.61, -6.40, -5.02, 0.032, -1.008, 0.272, 18:56:17.596, 1590857777596
15, 5.39, 10.27, 0.88, 7.12, 0.032, -1.008, 0.272, 18:56:17.597, 1590857777597
16, 30.36, 35.42, 20.94, 32.78, 0.032, -1.008, 0.272, 18:56:17.597, 1590857777597
17, 0.19, 5.06, -1.51, 3.55, 0.032, -1.008, 0.272, 18:56:17.608, 1590857777608
18, -7.37, -1.10, -4.60, -2.57, 0.032, -1.008, 0.272, 18:56:17.608, 1590857777608
19, 5.89, 8.73, 9.08, 8.66, 0.032, -1.008, 0.272, 18:56:17.623, 1590857777623
20, 31.37, 30.32, 22.85, 33.75, 0.032, -1.008, 0.272, 18:56:17.623, 1590857777623
21, 0.35, 3.21, 1.72, 7.70, 0.032, -1.008, 0.272, 18:56:17.639, 1590857777639
22, -6.30, -0.46, -6.65, 0.91, 0.032, -1.008, 0.272, 18:56:17.639, 1590857777639
23, 5.79, 3.65, 4.52, 8.03, 0.032, -1.008, 0.272, 18:56:17.639, 1590857777639
24, 30.61, 25.51, 26.97, 32.57, 0.032, -1.008, 0.272, 18:56:17.639, 1590857777639
25, -0.96, 0.74, 1.19, 4.84, 0.032, -1.008, 0.272, 18:56:17.653, 1590857777653
26, -7.23, 0.69, -5.45, -3.43, 0.032, -1.008, 0.288, 18:56:17.653, 1590857777653
27, 2.17, 9.12, 4.76, 8.73, 0.032, -1.008, 0.288, 18:56:17.668, 1590857777668
28, 28.94, 30.82, 27.97, 31.49, 0.032, -1.008, 0.288, 18:56:17.668, 1590857777668
29, -3.45, 2.10, 0.80, 2.69, 0.032, -1.008, 0.288, 18:56:17.669, 1590857777669
30, -10.69, 0.07, -9.50, -6.11, 0.032, -1.008, 0.288, 18:56:17.669, 1590857777669
31, 3.80, 7.99, 5.78, 8.00, 0.032, -1.008, 0.288, 18:56:17.683, 1590857777683
32, 26.24, 27.59, 28.00, 27.61, 0.032, -1.008, 0.288, 18:56:17.683, 1590857777683
33, -1.95, 5.96, 1.83, 1.95, 0.032, -1.008, 0.288, 18:56:17.698, 1590857777698
34, -7.11, -0.74, -2.87, -3.71, 0.032, -1.008, 0.288, 18:56:17.698, 1590857777698
35, 6.20, 12.76, 1.81, 5.29, 0.032, -1.008, 0.288, 18:56:17.699, 1590857777699
36, 29.89, 32.45, 24.26, 32.10, 0.032, -1.008, 0.288, 18:56:17.699, 1590857777699
37, 0.48, 9.64, 3.00, 2.58, 0.032, -1.008, 0.288, 18:56:17.713, 1590857777713
38, -9.09, -2.13, 0.85, -7.04, 0.032, -1.008, 0.288, 18:56:17.713, 1590857777713
39, 2.84, 11.34, 12.26, 5.47, 0.032, -1.008, 0.288, 18:56:17.728, 1590857777728
40, 29.36, 28.79, 23.38, 33.83, 0.032, -1.008, 0.288, 18:56:17.728, 1590857777728
41, 2.02, -0.40, -5.76, 3.86, 0.032, -1.008, 0.288, 18:56:17.729, 1590857777729
42, -9.38, -7.17, -3.99, -4.20, 0.032, -1.008, 0.288, 18:56:17.729, 1590857777729
43, 1.73, 6.96, 3.15, 8.22, 0.032, -1.008, 0.288, 18:56:17.743, 1590857777743
44, 25.99, 26.33, 24.71, 28.24, 0.032, -1.008, 0.288, 18:56:17.743, 1590857777743
45, -0.17, 5.72, 3.98, 5.28, 0.032, -1.008, 0.288, 18:56:17.759, 1590857777759
46, -3.84, 1.56, 1.75, -2.27, 0.048, -1.008, 0.288, 18:56:17.759, 1590857777759
47, 4.21, 2.37, 5.48, 7.22, 0.048, -1.008, 0.288, 18:56:17.759, 1590857777759
48, 26.88, 29.40, 21.29, 31.51, 0.048, -1.008, 0.288, 18:56:17.759, 1590857777759
49, -1.63, 7.84, 0.82, 8.25, 0.048, -1.008, 0.288, 18:56:17.773, 1590857777773
50, -8.77, -4.94, -8.13, -7.17, 0.048, -1.008, 0.288, 18:56:17.773, 1590857777773
51, 7.75, 11.45, 8.59, 8.02, 0.048, -1.008, 0.288, 18:56:17.788, 1590857777788
52, 26.61, 29.24, 26.92, 34.56, 0.048, -1.008, 0.288, 18:56:17.788, 1590857777788
53, -1.02, -0.81, -2.05, 1.63, 0.048, -1.008, 0.288, 18:56:17.789, 1590857777789
54, -5.67, -0.59, -1.35, -3.28, 0.048, -1.008, 0.288, 18:56:17.789, 1590857777789
55, 3.40, 11.88, 10.82, 9.02, 0.048, -1.008, 0.288, 18:56:17.803, 1590857777803
56, 22.13, 29.55, 25.73, 32.16, 0.048, -1.008, 0.288, 18:56:17.803, 1590857777803
57, 0.51, 6.49, 1.34, 4.64, 0.048, -1.008, 0.288, 18:56:17.818, 1590857777818
58, -6.05, 2.26, -6.65, -3.88, 0.048, -1.008, 0.288, 18:56:17.818, 1590857777818
59, 3.75, 8.81, 7.07, 11.18, 0.048, -1.008, 0.288, 18:56:17.819, 1590857777819
