%OpenBCI Raw EEG Data
%Number of channels = 4
%Sample Rate = 200.0 Hz
%First Column = SampleIndex
%Last Column = Timestamp 
%Other Columns = EEG data in microvolts followed by Accel Data (in G) interleaved with Aux Data
0, 8.59, 16.08, 10.49, 10.44, 0.032, -0.032, -1.072, 18:57:40.530, 1590857860530
1, 9.36, 14.92, 14.82, 14.01, 0.032, -0.032, -1.072, 18:57:40.544, 1590857860544
2, 3.91, 13.50, 9.73, 6.01, 0.032, -0.032, -1.072, 18:57:40.544, 1590857860544
3, -6.19, -1.02, 1.46, 4.93, 0.032, -0.032, -1.072, 18:57:40.559, 1590857860559
4, 10.79, 15.35, 8.21, 7.75, 0.032, -0.032, -1.072, 18:57:40.559, 1590857860559
5, 8.68, 15.67, 15.74, 13.59, 0.032, -0.032, -1.072, 18:57:40.560, 1590857860560
6, 2.78, 7.90, 8.27, 10.63, 0.000, -0.016, -0.528, 18:57:40.560, 1590857860560
7, -1.82, 2.13, 4.60, 0.86, 0.000, -0.016, -0.528, 18:57:40.574, 1590857860574
8, 10.77, 17.66, 7.93, 15.89, 0.000, -0.016, -0.528, 18:57:40.574, 1590857860574
9, 13.75, 16.44, 11.29, 18.33, 0.000, -0.016, -0.528, 18:57:40.591, 1590857860591
10, 3.33, 8.73, 10.67, 15.98, 0.000, -0.016, -0.528, 18:57:40.591, 1590857860591
11, -2.86, 5.74, 3.53, -0.11, 0.000, -0.016, -0.528, 18:57:40.592, 1590857860592
12, 9.84, 15.29, 9.70, 14.15, 0.000, -0.016, -0.528, 18:57:40.592, 1590857860592
13, 16.49, 13.20, 10.09, 12.78, 0.000, -0.016, -0.528, 18:57:40.604, 1590857860604
14, 6.54, 9.67, 4.94, 6.61, 0.000, -0.016, -0.528, 18:57:40.604, 1590857860604
15, -0.04, 4.97, -4.76, 3.53, 0.000, -0.016, -0.528, 18:57:40.619, 1590857860619
16, 16.84, 12.36, 15.24, 12.40, 0.000, -0.016, -0.528, 18:57:40.619, 1590857860619
17, 9.62, 13.62, 11.70, 15.59, 0.000, -0.016, -0.528, 18:57:40.620, 1590857860620
18, 5.22, 12.36, 4.94, 10.83, 0.000, -0.016, -0.528, 18:57:40.620, 1590857860620
19, -5.09, 5.27, -4.49, 0.99, 0.000, -0.016, -0.528, 18:57:40.634, 1590857860634
20, 11.79, 18.17, 9.82, 13.01, 0.000, -0.016, -0.528, 18:57:40.634, 1590857860634
21, 13.10, 8.49, 13.86, 16.43, 0.000, -0.016, -0.528, 18:57:40.650, 1590857860650
22, 4.96, 9.10, 7.23, 10.19, 0.000, -0.016, -0.528, 18:57:40.650, 1590857860650
23, -2.78, 3.56, 0.59, 4.13, 0.000, -0.016, -0.528, 18:57:40.651, 1590857860651
24, 11.21, 16.06, 11.82, 15.81, 0.000, -0.016, -0.528, 18:57:40.651, 1590857860651
25, 17.50, 16.80, 6.22, 13.87, 0.000, -0.016, -0.528, 18:57:40.664, 1590857860664
26, 2.37, 10.38, 5.13, 7.06, 0.000, -0.016, -0.784, 18:57:40.664, 1590857860664
27, -0.52, 1.31, -4.42, 4.48, 0.000, -0.016, -0.784, 18:57:40.679, 1590857860679
28, 10.28, 17.92, 14.79, 17.25, 0.000, -0.016, -0.784, 18:57:40.679, 1590857860679
29, 13.95, 16.90, 15.05, 14.54, 0.000, -0.016, -0.784, 18:57:40.680, 1590857860680
30, 5.95, 7.58, 4.02, 10.72, 0.000, -0.016, -0.784, 18:57:40.680, 1590857860680
31, -1.21, 6.34, -0.05, 5.04, 0.000, -0.016, -0.784, 18:57:40.710, 1590857860710
32, 10.72, 14.47, 10.66, 14.86, 0.000, -0.016, -0.784, 18:57:40.710, 1590857860710
33, 9.98, 14.47, 12.82, 19.41, 0.000, -0.016, -0.784, 18:57:40.726, 1590857860726
34, 4.43, 14.46, 4.90, 9.99, 0.000, -0.016, -0.784, 18:57:40.726, 1590857860726
35, -7.10, -0.74, -1.93, -0.62, 0.000, -0.016, -0.784, 18:57:40.727, 1590857860727
36, 14.87, 19.17, 7.02, 16.81, 0.000, -0.016, -0.784, 18:57:40.727, 1590857860727
37, 7.74, 14.81, 13.66, 17.34, 0.000, -0.016, -0.784, 18:57:40.728, 1590857860728
38, 1.65, 13.91, 10.08, 13.03, 0.000, -0.016, -0.784, 18:57:40.728, 1590857860728
39, -6.24, 4.37, 4.08, -1.55, 0.000, -0.016, -0.784, 18:57:40.728, 1590857860728
40, 15.13, 20.41, 14.61, 15.07, 0.000, -0.016, -0.784, 18:57:40.728, 1590857860728
41, 10.78, 17.39, 6.65, 12.41, 0.000, -0.016, -0.784, 18:57:40.739, 1590857860739
42, 10.17, 12.61, 9.37, 7.26, 0.000, -0.016, -0.784, 18:57:40.739, 1590857860739
43, -8.56, 0.23, -1.51, 1.13, 0.000, -0.016, -0.784, 18:57:40.754, 1590857860754
44, 16.58, 19.30, 15.43, 15.19, 0.000, -0.016, -0.784, 18:57:40.754, 1590857860754
45, 5.52, 13.86, 14.36, 12.50, 0.000, -0.016, -0.784, 18:57:40.770, 1590857860770
46, 3.28, 10.42, 2.23, 10.56, 0.016, -0.016, -0.928, 18:57:40.770, 1590857860770
47, -2.90, 0.94, -1.48, 6.07, 0.016, -0.016, -0.928, 18:57:40.771, 1590857860771
48, 13.71, 15.82, 12.20, 16.71, 0.016, -0.016, -0.928, 18:57:40.771, 1590857860771
49, 10.87, 12.06, 14.36, 15.43, 0.016, -0.016, -0.928, 18:57:40.784, 1590857860784
50, 2.52, 6.86, 0.51, 7.60, 0.016, -0.016, -0.928, 18:57:40.784, 1590857860784
51, -3.51, 3.77, -3.41, -0.89, 0.016, -0.016, -0.928, 18:57:40.799, 1590857860799
52, 18.03, 16.73, 18.11, 17.33, 0.016, -0.016, -0.928, 18:57:40.799, 1590857860799
53, 13.36, 21.71, 13.61, 14.77, 0.016, -0.016, -0.928, 18:57:40.800, 1590857860800
54, 4.01, 8.62, 2.82, 9.74, 0.016, -0.016, -0.928, 18:57:40.800, 1590857860800
55, -8.77, 1.56, -3.38, -3.06, 0.016, -0.016, -0.928, 18:57:40.814, 1590857860814
56, 14.77, 17.56, 10.94, 11.80, 0.016, -0.016, -0.928, 18:57:40.814, 1590857860814
57, 15.78, 14.74, 13.16, 18.08, 0.016, -0.016, -0.928, 18:57:40.829, 1590857860829
58, 1.43, 8.55, 2.34, 14.97, 0.016, -0.016, -0.928, 18:57:40.829, 1590857860829
59, -9.16, 2.95, -2.41, -0.28, 0.016, -0.016, -0.928, 18:57:40.830, 1590857860830
60, 13.16, 21.98, 12.00, 16.43, 0.016, -0.016, -0.928, 18:57:40.830, 1590857860830
61, 12.85, 17.24, 12.11, 17.90, 0.016, -0.016, -0.928, 18:57:40.844, 1590857860844
62, 4.12, 9.87, 1.74, 10.23, 0.016, -0.016, -0.928, 18:57:40.844, 1590857860844
63, -4.03, 4.28, -2.01, -5.35, 0.016, -0.016, -0.928, 18:57:40.859, 1590857860859
64, 19.57, 18.00, 13.36, 19.36, 0.016, -0.016, -0.928, 18:57:40.859, 1590857860859
65, 15.13, 14.36, 11.31, 19.20, 0.016, -0.016, -0.928, 18:57:40.860, 1590857860860
66, 3.16, 5.47, 4.45, 6.88, 0.016, -0.016, -0.992, 18:57:40.860, 1590857860860
67, -1.33, -5.90, -1.73, -1.02, 0.016, -0.016, -0.992, 18:57:40.874, 1590857860874
68, 16.42, 16.31, 14.90, 17.36, 0.016, -0.016, -0.992, 18:57:40.874, 1590857860874
69, 14.96, 16.88, 7.19, 15.72, 0.016, -0.016, -0.992, 18:57:40.906, 1590857860906
70, 4.43, 4.00, 5.79, 6.67, 0.016, -0.016, -0.992, 18:57:40.906, 1590857860906
71, -9.83, -0.12, -2.78, -1.89, 0.016, -0.016, -0.992, 18:57:40.907, 1590857860907
72, 13.56, 16.02, 11.60, 19.61, 0.016, -0.016, -0.992, 18:57:40.907, 1590857860907
73, 11.12, 15.85, 9.27, 14.48, 0.016, -0.016, -0.992, 18:57:40.907, 1590857860907
74, 4.28, 9.74, 2.54, 7.90, 0.016, -0.016, -0.992, 18:57:40.907, 1590857860907
75, -5.38, 2.34, -7.75, -1.94, 0.016, -0.016, -0.992, 18:57:40.908, 1590857860908
76, 15.47, 18.20, 13.27, 20.09, 0.016, -0.016, -0.992, 18:57:40.908, 1590857860908
77, 9.84, 14.46, 14.32, 11.10, 0.016, -0.016, -0.992, 18:57:40.919, 1590857860919
78, -0.49, 12.95, 7.79, 4.62, 0.016, -0.016, -0.992, 18:57:40.919, 1590857860919
79, -11.11, -3.51, -3.42, -7.39, 0.016, -0.016, -0.992, 18:57:40.934, 1590857860934
80, 16.17, 18.34, 14.90, 17.47, 0.016, -0.016, -0.992, 18:57:40.934, 1590857860934
81, 12.15, 11.47, 9.54, 19.60, 0.016, -0.016, -0.992, 18:57:40.966, 1590857860966
82, 1.60, 6.91, 3.25, 8.91, 0.016, -0.016, -0.992, 18:57:40.966, 1590857860966
83, -4.68, 1.97, -4.38, -5.33, 0.016, -0.016, -0.992, 18:57:40.966, 1590857860966
84, 20.98, 22.07, 13.37, 18.83, 0.016, -0.016, -0.992, 18:57:40.966, 1590857860966
85, 13.96, 16.88, 9.32, 12.86, 0.016, -0.016, -0.992, 18:57:40.967, 1590857860967
86, 4.82, 12.19, 6.16, 6.40, 0.016, -0.016, -1.008, 18:57:40.967, 1590857860967
87, -8.36, -0.41, -2.65, -3.67, 0.016, -0.016, -1.008, 18:57:40.969, 1590857860969
88, 16.65, 23.16, 17.50, 21.33, 0.016, -0.016, -1.008, 18:57:40.969, 1590857860969
89, 9.96, 15.09, 12.58, 7.96, 0.016, -0.016, -1.008, 18:57:40.979, 1590857860979
90, 1.84, 5.09, 7.87, 6.26, 0.016, -0.016, -1.008, 18:57:40.979, 1590857860979
91, -4.41, -0.96, -1.09, -4.55, 0.016, -0.016, -1.008, 18:57:40.994, 1590857860994
92, 15.98, 23.74, 14.57, 17.82, 0.016, -0.016, -1.008, 18:57:40.994, 1590857860994
93, 11.91, 16.52, 10.38, 16.59, 0.016, -0.016, -1.008, 18:57:41.009, 1590857861009
94, -1.92, 7.16, 1.26, 5.68, 0.016, -0.016, -1.008, 18:57:41.009, 1590857861009
95, -11.12, -1.21, -1.79, 0.97, 0.016, -0.016, -1.008, 18:57:41.010, 1590857861010
96, 12.91, 23.57, 16.22, 18.57, 0.016, -0.016, -1.008, 18:57:41.010, 1590857861010
97, 7.02, 17.38, 10.46, 16.55, 0.016, -0.016, -1.008, 18:57:41.024, 1590857861024
98, -0.06, 9.85, 2.31, 9.89, 0.016, -0.016, -1.008, 18:57:41.024, 1590857861024
99, -3.97, -2.12, -8.41, -2.42, 0.016, -0.016, -1.008, 18:57:41.039, 1590857861039
100, 18.56, 20.33, 13.04, 18.01, 0.016, -0.016, -1.008, 18:57:41.039, 1590857861039
101, 13.15, 17.33, 14.57, 17.24, 0.016, -0.016, -1.008, 18:57:41.040, 1590857861040
102, 1.66, 7.31, 2.48, 6.70, 0.016, -0.016, -1.008, 18:57:41.040, 1590857861040
103, -7.26, -4.25, -3.53, -1.02, 0.016, -0.016, -1.008, 18:57:41.054, 1590857861054
104, 19.77, 21.19, 16.73, 16.71, 0.016, -0.016, -1.008, 18:57:41.054, 1590857861054
105, 12.39, 15.50, 10.69, 18.09, 0.016, -0.016, -1.008, 18:57:41.069, 1590857861069
106, 2.89, 4.99, 1.15, 7.25, 0.016, -0.016, -1.024, 18:57:41.069, 1590857861069
107, -5.53, -3.78, -5.04, -4.42, 0.016, -0.016, -1.024, 18:57:41.070, 1590857861070
108, 14.20, 16.05, 17.17, 16.11, 0.016, -0.016, -1.024, 18:57:41.070, 1590857861070
109, 9.28, 18.22, 14.85, 13.85, 0.016, -0.016, -1.024, 18:57:41.084, 1590857861084
110, 3.30, 6.63, 0.22, 3.88, 0.016, -0.016, -1.024, 18:57:41.084, 1590857861084
111, -0.16, -1.72, -2.97, -0.56, 0.016, -0.016, -1.024, 18:57:41.099, 1590857861099
112, 18.59, 21.24, 14.92, 18.14, 0.016, -0.016, -1.024, 18:57:41.099, 1590857861099
113, 15.36, 15.35, 11.30, 13.36, 0.016, -0.016, -1.024, 18:57:41.100, 1590857861100
114, -3.35, 8.95, 7.23, 8.65, 0.016, -0.016, -1.024, 18:57:41.100, 1590857861100
115, -9.46, -1.27, -0.76, 0.49, 0.016, -0.016, -1.024, 18:57:41.114, 1590857861114
116, 16.05, 21.15, 12.50, 15.92, 0.016, -0.016, -1.024, 18:57:41.114, 1590857861114
117, 9.39, 15.74, 12.60, 19.69, 0.016, -0.016, -1.024, 18:57:41.130, 1590857861130
118, 3.63, 1.90, 6.21, 6.90, 0.016, -0.016, -1.024, 18:57:41.130, 1590857861130
119, -6.85, -3.52, -3.80, -5.32, 0.016, -0.016, -1.024, 18:57:41.130, 1590857861130
120, 17.96, 15.62, 21.73, 15.13, 0.016, -0.016, -1.024, 18:57:41.130, 1590857861130
121, 14.09, 19.42, 9.94, 12.08, 0.016, -0.016, -1.024, 18:57:41.144, 1590857861144
122, -0.45, 7.11, 2.34, 7.55, 0.016, -0.016, -1.024, 18:57:41.144, 1590857861144
123, -6.95, -1.78, -3.60, -3.64, 0.016, -0.016, -1.024, 18:57:41.159, 1590857861159
124, 19.29, 17.90, 19.81, 18.84, 0.016, -0.016, -1.024, 18:57:41.159, 1590857861159
125, 11.96, 18.97, 11.03, 12.61, 0.016, -0.016, -1.024, 18:57:41.160, 1590857861160
126, 0.73, 6.90, 6.58, 12.31, 0.016, -0.016, -1.040, 18:57:41.160, 1590857861160
127, -6.71, 0.06, -5.33, -0.34, 0.016, -0.016, -1.040, 18:57:41.174, 1590857861174
128, 14.23, 16.07, 12.16, 13.82, 0.016, -0.016, -1.040, 18:57:41.174, 1590857861174
129, 14.49, 18.48, 10.62, 17.02, 0.016, -0.016, -1.040, 18:57:41.189, 1590857861189
130, 4.95, 8.82, 5.80, 7.76, 0.016, -0.016, -1.040, 18:57:41.190, 1590857861190
131, -5.50, 2.46, -0.75, -6.90, 0.016, -0.016, -1.040, 18:57:41.190, 1590857861190
132, 15.46, 17.29, 13.58, 15.93, 0.016, -0.016, -1.040, 18:57:41.190, 1590857861190
133, 12.51, 14.17, 8.44, 13.18, 0.016, -0.016, -1.040, 18:57:41.204, 1590857861204
134, 2.29, 10.83, 5.13, 4.75, 0.016, -0.016, -1.040, 18:57:41.204, 1590857861204
135, -7.44, 4.26, -1.66, 0.93, 0.016, -0.016, -1.040, 18:57:41.220, 1590857861220
136, 12.48, 14.13, 18.68, 17.15, 0.016, -0.016, -1.040, 18:57:41.220, 1590857861220
137, 13.22, 18.01, 9.33, 17.79, 0.016, -0.016, -1.040, 18:57:41.220, 1590857861220
138, 3.92, 13.87, 3.10, 6.21, 0.016, -0.016, -1.040, 18:57:41.220, 1590857861220
139, 0.34, 2.56, -1.90, 2.65, 0.016, -0.016, -1.040, 18:57:41.234, 1590857861234
140, 9.21, 19.77, 10.61, 14.45, 0.016, -0.016, -1.040, 18:57:41.234, 1590857861234
141, 14.92, 13.12, 14.95, 18.25, 0.016, -0.016, -1.040, 18:57:41.249, 1590857861249
142, 7.81, 10.43, 9.62, 10.09, 0.016, -0.016, -1.040, 18:57:41.249, 1590857861249
143, -1.52, 1.75, 2.51, -3.91, 0.016, -0.016, -1.040, 18:57:41.250, 1590857861250
144, 10.02, 18.02, 10.29, 13.49, 0.016, -0.016, -1.040, 18:57:41.250, 1590857861250
145, 11.77, 15.64, 13.94, 15.93, 0.016, -0.016, -1.040, 18:57:41.264, 1590857861264
146, 0.10, 12.36, 3.98, 10.56, 0.016, -0.016, -1.040, 18:57:41.264, 1590857861264
147, -2.31, 0.54, 2.14, 1.86, 0.016, -0.016, -1.040, 18:57:41.279, 1590857861279
148, 5.19, 14.57, 9.88, 14.78, 0.016, -0.016, -1.040, 18:57:41.279, 1590857861279
149, 7.35, 17.21, 12.25, 14.20, 0.016, -0.016, -1.040, 18:57:41.294, 1590857861294
150, 7.30, 11.19, 8.28, 7.24, 0.016, -0.016, -1.040, 18:57:41.294, 1590857861294
151, -4.13, 5.87, 5.37, 5.85, 0.016, -0.016, -1.040, 18:57:41.295, 1590857861295
152, 11.66, 12.46, 6.67, 10.70, 0.016, -0.016, -1.040, 18:57:41.295, 1590857861295
153, 13.09, 16.97, 7.56, 11.54, 0.016, -0.016, -1.040, 18:57:41.309, 1590857861309
154, 2.93, 13.17, 9.80, 8.84, 0.016, -0.016, -1.040, 18:57:41.309, 1590857861309
155, -7.34, 3.20, 4.92, 2.68, 0.016, -0.016, -1.040, 18:57:41.310, 1590857861310
156, 5.78, 13.88, 7.29, 10.05, 0.016, -0.016, -1.040, 18:57:41.310, 1590857861310
157, 8.47, 11.32, 10.44, 11.62, 0.016, -0.016, -1.040, 18:57:41.324, 1590857861324
158, 9.95, 7.71, 12.11, 14.51, 0.016, -0.016, -1.040, 18:57:41.324, 1590857861324
159, 0.57, 7.23, 9.21, 8.17, 0.016, -0.016, -1.040, 18:57:41.339, 1590857861339
160, 6.36, 15.59, 3.72, 11.18, 0.016, -0.016, -1.040, 18:57:41.339, 1590857861339
161, 6.45, 13.84, 7.86, 13.67, 0.016, -0.016, -1.040, 18:57:41.340, 1590857861340
162, 3.88, 5.02, 7.81, 11.26, 0.016, -0.016, -1.040, 18:57:41.340, 1590857861340
163, 5.86, 7.26, 5.05, 0.75, 0.016, -0.016, -1.040, 18:57:41.354, 1590857861354
164, 3.68, 6.63, 9.42, 10.48, 0.016, -0.016, -1.040, 18:57:41.354, 1590857861354
165, 9.61, 14.34, 11.27, 10.65, 0.016, -0.016, -1.040, 18:57:41.370, 1590857861370
166, 9.16, 11.88, 8.39, 8.58, 0.000, 0.000, -1.056, 18:57:41.370, 1590857861370
167, 1.46, 9.06, -0.26, 9.49, 0.000, 0.000, -1.056, 18:57:41.371, 1590857861371
168, 10.23, 16.07, 4.72, 11.50, 0.000, 0.000, -1.056, 18:57:41.371, 1590857861371
169, 9.60, 16.46, 4.53, 7.93, 0.000, 0.000, -1.056, 18:57:41.384, 1590857861384
170, 10.26, 13.65, -0.52, 9.93, 0.000, 0.000, -1.056, 18:57:41.384, 1590857861384
171, 5.81, 5.60, 3.46, 8.21, 0.000, 0.000, -1.056, 18:57:41.399, 1590857861399
172, 9.64, 15.26, 7.58, 8.86, 0.000, 0.000, -1.056, 18:57:41.399, 1590857861399
173, 9.97, 12.81, 9.49, 12.14, 0.000, 0.000, -1.056, 18:57:41.400, 1590857861400
174, 6.29, 6.69, 10.36, 13.42, 0.000, 0.000, -1.056, 18:57:41.400, 1590857861400
175, 6.57, 7.75, 4.90, 14.51, 0.000, 0.000, -1.056, 18:57:41.414, 1590857861414
176, 6.29, 12.20, 5.29, 8.76, 0.000, 0.000, -1.056, 18:57:41.414, 1590857861414
177, 6.45, 15.00, 6.60, 15.70, 0.000, 0.000, -1.056, 18:57:41.429, 1590857861429
178, 6.70, 10.87, 8.24, 8.43, 0.000, 0.000, -1.056, 18:57:41.429, 1590857861429
179, 1.38, 8.98, 7.60, 9.27, 0.000, 0.000, -1.056, 18:57:41.430, 1590857861430
180, 6.83, 12.81, 7.85, 3.53, 0.000, 0.000, -1.056, 18:57:41.430, 1590857861430
181, 7.87, 10.32, 3.35, 11.94, 0.000, 0.000, -1.056, 18:57:41.460, 1590857861460
182, 8.15, 8.65, 6.87, 12.00, 0.000, 0.000, -1.056, 18:57:41.460, 1590857861460
183, 6.60, 9.47, 3.97, 5.93, 0.000, 0.000, -1.056, 18:57:41.461, 1590857861461
184, 10.93, 11.64, 4.09, 11.82, 0.000, 0.000, -1.056, 18:57:41.461, 1590857861461
185, 7.76, 9.86, 9.07, 10.76, 0.000, 0.000, -1.056, 18:57:41.461, 1590857861461
186, 11.88, 6.34, 3.97, 17.64, 0.016, -0.016, -1.040, 18:57:41.461, 1590857861461
187, 1.02, 13.04, 6.10, 7.25, 0.016, -0.016, -1.040, 18:57:41.474, 1590857861474
188, 5.73, 14.39, 6.16, 8.90, 0.016, -0.016, -1.040, 18:57:41.474, 1590857861474
189, 7.08, 13.44, 12.64, 4.31, 0.016, -0.016, -1.040, 18:57:41.490, 1590857861490
190, 8.14, 8.48, 5.73, 13.56, 0.016, -0.016, -1.040, 18:57:41.490, 1590857861490
191, 3.36, 12.37, 7.04, 8.09, 0.016, -0.016, -1.040, 18:57:41.490, 1590857861490
192, 3.86, 11.79, 6.86, 8.34, 0.016, -0.016, -1.040, 18:57:41.490, 1590857861490
193, 8.54, 9.72, 6.86, 10.68, 0.016, -0.016, -1.040, 18:57:41.504, 1590857861504
194, 2.34, 7.49, 9.11, 10.34, 0.016, -0.016, -1.040, 18:57:41.504, 1590857861504
195, 5.66, 11.06, 7.01, 2.11, 0.016, -0.016, -1.040, 18:57:41.520, 1590857861520
196, 6.49, 10.65, 6.71, 8.12, 0.016, -0.016, -1.040, 18:57:41.520, 1590857861520
197, 8.92, 13.27, 6.13, 11.17, 0.016, -0.016, -1.040, 18:57:41.520, 1590857861520
198, 4.39, 4.64, 8.51, 5.59, 0.016, -0.016, -1.040, 18:57:41.520, 1590857861520
199, -4.19, 8.84, 4.13, 6.13, 0.016, -0.016, -1.040, 18:57:41.535, 1590857861535
200, 9.90, 8.09, 6.75, 9.33, 0.016, -0.016, -1.040, 18:57:41.535, 1590857861535
0, 7.59, 14.40, 8.57, 12.92, 0.016, -0.016, -1.040, 18:57:41.536, 1590857861536
1, 6.55, 14.51, 9.17, 12.92, 0.016, -0.016, -1.040, 18:57:41.549, 1590857861549
2, 3.09, 9.86, 4.02, 6.41, 0.016, -0.016, -1.040, 18:57:41.549, 1590857861549
3, 5.35, 18.87, 9.50, 6.07, 0.016, -0.016, -1.040, 18:57:41.564, 1590857861564
4, 2.77, 11.33, 4.39, 14.43, 0.016, -0.016, -1.040, 18:57:41.564, 1590857861564
5, 10.05, 14.18, 7.02, 15.52, 0.016, -0.016, -1.040, 18:57:41.565, 1590857861565
6, 3.40, 11.81, 5.07, 5.64, 0.016, 0.000, -1.024, 18:57:41.565, 1590857861565
7, 8.28, 12.47, 7.85, 9.51, 0.016, 0.000, -1.024, 18:57:41.579, 1590857861579
8, 3.86, 13.56, 6.37, 5.48, 0.016, 0.000, -1.024, 18:57:41.579, 1590857861579
9, 5.90, 13.89, 9.94, 10.29, 0.016, 0.000, -1.024, 18:57:41.611, 1590857861611
10, 4.89, 4.17, 9.66, 7.61, 0.016, 0.000, -1.024, 18:57:41.611, 1590857861611
11, 10.80, 12.65, 6.64, 7.14, 0.016, 0.000, -1.024, 18:57:41.611, 1590857861611
12, 12.05, 12.83, 5.50, 14.13, 0.016, 0.000, -1.024, 18:57:41.611, 1590857861611
13, 9.72, 19.14, 11.95, 17.60, 0.016, 0.000, -1.024, 18:57:41.612, 1590857861612
14, 3.47, 18.57, 3.92, 13.62, 0.016, 0.000, -1.024, 18:57:41.612, 1590857861612
15, 4.51, 10.99, -3.14, 9.49, 0.016, 0.000, -1.024, 18:57:41.613, 1590857861613
16, 9.01, 11.32, -1.62, 4.65, 0.016, 0.000, -1.024, 18:57:41.613, 1590857861613
17, 5.69, 10.92, 1.61, 3.84, 0.016, 0.000, -1.024, 18:57:41.624, 1590857861624
18, 4.22, 8.81, -5.39, 5.08, 0.016, 0.000, -1.024, 18:57:41.624, 1590857861624
19, 9.66, 12.22, 7.93, 5.62, 0.016, 0.000, -1.024, 18:57:41.639, 1590857861639
20, 6.71, 12.54, 7.34, 12.89, 0.016, 0.000, -1.024, 18:57:41.639, 1590857861639
21, 5.57, 12.12, 7.22, 12.95, 0.016, 0.000, -1.024, 18:57:41.671, 1590857861671
22, 10.33, 7.46, 9.62, 8.52, 0.016, 0.000, -1.024, 18:57:41.671, 1590857861671
23, 10.98, 7.93, 9.92, 5.24, 0.016, 0.000, -1.024, 18:57:41.671, 1590857861671
24, 9.22, 10.42, 9.49, 15.65, 0.016, 0.000, -1.024, 18:57:41.671, 1590857861671
25, 1.71, 15.54, 5.12, 21.19, 0.016, 0.000, -1.024, 18:57:41.672, 1590857861672
26, 2.61, 8.29, 8.47, 18.27, 0.000, -0.016, -0.896, 18:57:41.672, 1590857861672
27, 4.12, 7.35, 6.90, 9.78, 0.000, -0.016, -0.896, 18:57:41.673, 1590857861673
28, 5.79, 11.66, 8.12, 14.73, 0.000, -0.016, -0.896, 18:57:41.673, 1590857861673
29, 2.71, 12.07, 8.49, 13.61, 0.000, -0.016, -0.896, 18:57:41.684, 1590857861684
30, 7.85, 8.78, 12.70, 11.98, 0.000, -0.016, -0.896, 18:57:41.684, 1590857861684
31, 8.55, 8.84, 6.42, 11.81, 0.000, -0.016, -0.896, 18:57:41.699, 1590857861699
32, 6.75, 7.27, 8.56, 11.89, 0.000, -0.016, -0.896, 18:57:41.699, 1590857861699
33, 9.33, 9.63, 10.54, 10.09, 0.000, -0.016, -0.896, 18:57:41.714, 1590857861714
34, 5.25, 11.27, 10.30, 10.97, 0.000, -0.016, -0.896, 18:57:41.714, 1590857861714
35, 5.61, 9.45, 9.44, 9.37, 0.000, -0.016, -0.896, 18:57:41.729, 1590857861729
36, 4.94, 7.50, 10.54, 13.65, 0.000, -0.016, -0.896, 18:57:41.729, 1590857861729
37, 12.08, 8.58, 10.19, 9.95, 0.000, -0.016, -0.896, 18:57:41.730, 1590857861730
38, 5.99, 9.64, 7.15, 4.83, 0.000, -0.016, -0.896, 18:57:41.730, 1590857861730
39, 6.95, 10.53, 9.51, 11.00, 0.000, -0.016, -0.896, 18:57:41.744, 1590857861744
40, 8.01, 15.40, 11.60, 11.45, 0.000, -0.016, -0.896, 18:57:41.744, 1590857861744
41, 7.98, 11.80, 5.28, 12.19, 0.000, -0.016, -0.896, 18:57:41.745, 1590857861745
42, 13.25, 12.98, 11.06, 15.44, 0.000, -0.016, -0.896, 18:57:41.745, 1590857861745
43, 7.55, 10.44, 12.91, 12.44, 0.000, -0.016, -0.896, 18:57:41.759, 1590857861759
44, 1.36, 5.73, 8.33, 11.29, 0.000, -0.016, -0.896, 18:57:41.759, 1590857861759
45, 3.63, 13.32, 8.23, 18.08, 0.000, -0.016, -0.896, 18:57:41.775, 1590857861775
46, 7.22, 17.31, 8.32, 14.56, 0.032, 0.144, -0.976, 18:57:41.775, 1590857861775
47, 5.80, 15.65, 9.18, 17.84, 0.032, 0.144, -0.976, 18:57:41.775, 1590857861775
48, 1.71, 12.00, 6.79, 11.99, 0.032, 0.144, -0.976, 18:57:41.775, 1590857861775
49, 10.31, 14.77, 8.25, 11.43, 0.032, 0.144, -0.976, 18:57:41.789, 1590857861789
50, 8.34, 13.71, 11.12, 11.75, 0.032, 0.144, -0.976, 18:57:41.789, 1590857861789
51, 9.13, 10.83, 13.05, 10.22, 0.032, 0.144, -0.976, 18:57:41.804, 1590857861804
52, 6.25, 8.98, 7.32, 16.46, 0.032, 0.144, -0.976, 18:57:41.804, 1590857861804
53, 8.56, 11.26, 11.15, 7.34, 0.032, 0.144, -0.976, 18:57:41.805, 1590857861805
54, 8.59, 7.46, 8.73, 11.52, 0.032, 0.144, -0.976, 18:57:41.805, 1590857861805
55, 5.05, 14.62, 6.45, 3.13, 0.032, 0.144, -0.976, 18:57:41.819, 1590857861819
56, 6.07, 9.06, 7.61, 7.33, 0.032, 0.144, -0.976, 18:57:41.819, 1590857861819
57, 9.51, 9.56, 11.08, 6.92, 0.032, 0.144, -0.976, 18:57:41.834, 1590857861834
58, 11.18, 14.67, 6.93, 10.38, 0.032, 0.144, -0.976, 18:57:41.834, 1590857861834
59, 6.55, 9.69, 11.74, -0.09, 0.032, 0.144, -0.976, 18:57:41.835, 1590857861835
60, 5.29, 10.01, 8.16, 5.23, 0.032, 0.144, -0.976, 18:57:41.835, 1590857861835
61, 7.16, 15.65, 11.09, 8.15, 0.032, 0.144, -0.976, 18:57:41.849, 1590857861849
62, 6.02, 19.48, 12.68, 7.32, 0.032, 0.144, -0.976, 18:57:41.849, 1590857861849
63, 10.02, 11.29, 11.34, 0.80, 0.032, 0.144, -0.976, 18:57:41.865, 1590857861865
64, 2.60, 13.61, 9.26, 4.04, 0.032, 0.144, -0.976, 18:57:41.865, 1590857861865
65, 7.85, 13.07, 9.22, 2.85, 0.032, 0.144, -0.976, 18:57:41.865, 1590857861865
66, 14.19, 15.38, 19.96, 0.10, -0.016, -0.048, -1.056, 18:57:41.865, 1590857861865
67, 8.34, 7.96, 5.82, 11.57, -0.016, -0.048, -1.056, 18:57:41.879, 1590857861879
68, 5.33, 6.77, 4.17, 3.90, -0.016, -0.048, -1.056, 18:57:41.879, 1590857861879
69, 7.96, 11.89, 10.32, 13.37, -0.016, -0.048, -1.056, 18:57:41.895, 1590857861895
70, 18.40, 12.49, 15.45, 17.57, -0.016, -0.048, -1.056, 18:57:41.895, 1590857861895
71, 6.91, 10.14, 7.13, 9.74, -0.016, -0.048, -1.056, 18:57:41.895, 1590857861895
72, 1.85, 4.04, 3.11, 19.57, -0.016, -0.048, -1.056, 18:57:41.895, 1590857861895
73, 5.38, 5.22, 4.97, 18.30, -0.016, -0.048, -1.056, 18:57:41.909, 1590857861909
74, 18.51, 19.31, 13.51, 17.30, -0.016, -0.048, -1.056, 18:57:41.909, 1590857861909
75, 8.06, 6.29, 9.47, 13.58, -0.016, -0.048, -1.056, 18:57:41.924, 1590857861924
76, 8.91, 5.59, 8.66, 10.33, -0.016, -0.048, -1.056, 18:57:41.924, 1590857861924
77, 12.66, 10.89, 9.01, 20.23, -0.016, -0.048, -1.056, 18:57:41.925, 1590857861925
78, 12.18, 15.44, 9.85, 25.99, -0.016, -0.048, -1.056, 18:57:41.925, 1590857861925
79, 1.26, 4.19, -0.01, 18.31, -0.016, -0.048, -1.056, 18:57:41.939, 1590857861939
80, -0.61, 2.16, -2.52, 15.51, -0.016, -0.048, -1.056, 18:57:41.939, 1590857861939
81, 9.61, 6.18, 5.74, 12.03, -0.016, -0.048, -1.056, 18:57:41.954, 1590857861954
82, 12.88, 18.05, 10.45, 17.74, -0.016, -0.048, -1.056, 18:57:41.954, 1590857861954
83, 8.59, 7.60, 5.00, 5.23, -0.016, -0.048, -1.056, 18:57:41.970, 1590857861970
84, 2.23, 4.92, -1.19, -14.42, -0.016, -0.048, -1.056, 18:57:41.970, 1590857861970
85, 7.96, 12.75, 7.47, -1.07, -0.016, -0.048, -1.056, 18:57:41.971, 1590857861971
86, 15.65, 14.30, 9.64, 8.81, -0.272, -0.192, -1.056, 18:57:41.971, 1590857861971
87, 7.97, 6.94, 5.26, 1.20, -0.272, -0.192, -1.056, 18:57:41.985, 1590857861985
88, 5.01, 5.92, -0.39, 8.30, -0.272, -0.192, -1.056, 18:57:41.985, 1590857861985
89, 8.51, 6.87, 5.37, 10.28, -0.272, -0.192, -1.056, 18:57:41.986, 1590857861986
90, 13.02, 10.36, 10.49, 13.32, -0.272, -0.192, -1.056, 18:57:41.986, 1590857861986
91, 10.94, 11.56, -1.62, 9.65, -0.272, -0.192, -1.056, 18:57:42.015, 1590857862015
92, 3.36, 10.09, -2.99, -0.44, -0.272, -0.192, -1.056, 18:57:42.015, 1590857862015
93, 4.35, 10.66, 1.01, 4.82, -0.272, -0.192, -1.056, 18:57:42.016, 1590857862016
94, 11.99, 16.23, 12.16, 18.32, -0.272, -0.192, -1.056, 18:57:42.016, 1590857862016
95, 6.62, 10.48, 3.22, 7.38, -0.272, -0.192, -1.056, 18:57:42.016, 1590857862016
96, 0.49, 8.76, 0.44, 3.41, -0.272, -0.192, -1.056, 18:57:42.016, 1590857862016
97, 7.41, 8.45, 5.38, 11.35, -0.272, -0.192, -1.056, 18:57:42.029, 1590857862029
98, 15.81, 20.25, 12.43, 19.53, -0.272, -0.192, -1.056, 18:57:42.029, 1590857862029
99, 6.29, 9.53, 5.54, 11.78, -0.272, -0.192, -1.056, 18:57:42.059, 1590857862059
100, 0.41, 7.29, 4.13, 6.68, -0.272, -0.192, -1.056, 18:57:42.059, 1590857862059
101, 1.45, 8.65, 4.71, 8.85, -0.272, -0.192, -1.056, 18:57:42.076, 1590857862076
102, 1.50, 13.69, 11.58, 14.42, -0.272, -0.192, -1.056, 18:57:42.076, 1590857862076
103, -0.03, 11.89, 5.09, 6.00, -0.272, -0.192, -1.056, 18:57:42.076, 1590857862076
104, -6.02, 8.59, -0.19, 0.32, -0.272, -0.192, -1.056, 18:57:42.076, 1590857862076
105, -7.58, 4.53, 4.91, 9.07, -0.272, -0.192, -1.056, 18:57:42.077, 1590857862077
106, -0.54, 19.23, 13.53, 13.65, -0.480, -0.368, -0.720, 18:57:42.077, 1590857862077
107, -3.85, 6.32, 2.61, 5.80, -0.480, -0.368, -0.720, 18:57:42.078, 1590857862078
108, -10.09, 6.37, 7.84, 7.99, -0.480, -0.368, -0.720, 18:57:42.078, 1590857862078
109, -10.34, 13.41, 6.23, 6.94, -0.480, -0.368, -0.720, 18:57:42.089, 1590857862089
110, -6.94, 18.03, 13.67, 11.21, -0.480, -0.368, -0.720, 18:57:42.089, 1590857862089
111, -1.80, 12.18, 7.20, 6.91, -0.480, -0.368, -0.720, 18:57:42.104, 1590857862104
112, -8.24, 7.51, 3.30, -0.24, -0.480, -0.368, -0.720, 18:57:42.104, 1590857862104
113, -2.94, 10.42, 7.11, 5.44, -0.480, -0.368, -0.720, 18:57:42.105, 1590857862105
114, 4.17, 12.76, 9.30, 11.07, -0.480, -0.368, -0.720, 18:57:42.105, 1590857862105
115, 1.80, 10.31, 9.21, 2.00, -0.480, -0.368, -0.720, 18:57:42.119, 1590857862119
116, -4.81, 5.52, 0.06, -5.20, -0.480, -0.368, -0.720, 18:57:42.119, 1590857862119
117, 8.25, 13.86, 6.04, 0.88, -0.480, -0.368, -0.720, 18:57:42.135, 1590857862135
118, 9.34, 17.37, 10.44, 7.04, -0.480, -0.368, -0.720, 18:57:42.135, 1590857862135
119, 7.70, 12.84, 12.70, 8.82, -0.480, -0.368, -0.720, 18:57:42.135, 1590857862135
120, 1.15, 3.37, 4.11, 2.94, -0.480, -0.368, -0.720, 18:57:42.135, 1590857862135
121, 8.03, 13.36, 6.53, 8.89, -0.480, -0.368, -0.720, 18:57:42.149, 1590857862149
122, 10.37, 17.86, 9.76, 22.71, -0.480, -0.368, -0.720, 18:57:42.149, 1590857862149
123, 6.03, 14.22, 11.38, 17.50, -0.480, -0.368, -0.720, 18:57:42.164, 1590857862164
124, 1.32, 7.59, 2.74, 3.95, -0.480, -0.368, -0.720, 18:57:42.164, 1590857862164
125, 2.03, 10.69, 1.04, 7.95, -0.480, -0.368, -0.720, 18:57:42.165, 1590857862165
126, 12.93, 19.20, 8.68, 10.88, -0.512, -0.576, -0.640, 18:57:42.165, 1590857862165
127, 5.53, 11.46, 6.44, 7.79, -0.512, -0.576, -0.640, 18:57:42.179, 1590857862179
128, 2.18, 7.44, -1.86, 4.45, -0.512, -0.576, -0.640, 18:57:42.179, 1590857862179
129, 6.54, 16.84, 6.83, 5.99, -0.512, -0.576, -0.640, 18:57:42.195, 1590857862195
130, 13.68, 21.16, 7.94, 16.32, -0.512, -0.576, -0.640, 18:57:42.195, 1590857862195
131, 9.74, 9.88, 7.31, 10.19, -0.512, -0.576, -0.640, 18:57:42.195, 1590857862195
132, 6.65, 6.30, 2.78, 3.32, -0.512, -0.576, -0.640, 18:57:42.195, 1590857862195
133, 6.90, 8.46, 7.78, 7.79, -0.512, -0.576, -0.640, 18:57:42.209, 1590857862209
134, 7.94, 15.35, 13.44, 13.07, -0.512, -0.576, -0.640, 18:57:42.209, 1590857862209
135, 13.35, 11.55, 8.76, 7.18, -0.512, -0.576, -0.640, 18:57:42.224, 1590857862224
136, 7.43, 6.95, 4.48, 7.59, -0.512, -0.576, -0.640, 18:57:42.224, 1590857862224
137, 8.06, 3.86, 7.88, 8.68, -0.512, -0.576, -0.640, 18:57:42.225, 1590857862225
138, 9.61, 8.81, 11.60, 28.25, -0.512, -0.576, -0.640, 18:57:42.225, 1590857862225
139, 9.40, 1.07, 12.81, 21.91, -0.512, -0.576, -0.640, 18:57:42.239, 1590857862239
140, 7.12, 0.99, -0.46, 21.54, -0.512, -0.576, -0.640, 18:57:42.239, 1590857862239
141, 12.83, 7.23, 10.70, 8.57, -0.512, -0.576, -0.640, 18:57:42.254, 1590857862254
142, 13.16, 11.31, 13.86, 15.14, -0.512, -0.576, -0.640, 18:57:42.254, 1590857862254
143, 8.58, 3.57, 11.03, 2.82, -0.512, -0.576, -0.640, 18:57:42.255, 1590857862255
144, 2.46, 2.28, 9.28, -2.11, -0.512, -0.576, -0.640, 18:57:42.255, 1590857862255
145, 7.30, 11.12, 12.05, 5.05, -0.512, -0.576, -0.640, 18:57:42.269, 1590857862269
146, 9.00, 15.20, 14.15, 8.27, -0.464, -0.768, -0.304, 18:57:42.269, 1590857862269
147, 7.12, 16.17, 6.37, 2.68, -0.464, -0.768, -0.304, 18:57:42.285, 1590857862285
148, 1.11, 6.68, 0.71, -7.67, -0.464, -0.768, -0.304, 18:57:42.285, 1590857862285
149, 4.77, 12.01, -2.86, -33.89, -0.464, -0.768, -0.304, 18:57:42.285, 1590857862285
150, 2.43, 27.35, 130.53, -48.08, -0.464, -0.768, -0.304, 18:57:42.285, 1590857862285
151, 8.35, 11.37, 9.68, 12.51, -0.464, -0.768, -0.304, 18:57:42.299, 1590857862299
152, -2.94, 1.96, -0.69, 2.88, -0.464, -0.768, -0.304, 18:57:42.299, 1590857862299
153, 1.51, 6.97, -1.11, 11.57, -0.464, -0.768, -0.304, 18:57:42.314, 1590857862314
154, 12.46, 16.25, 10.63, 18.79, -0.464, -0.768, -0.304, 18:57:42.314, 1590857862314
155, 3.07, 6.60, -0.42, 8.42, -0.464, -0.768, -0.304, 18:57:42.329, 1590857862329
156, -1.57, 0.75, -5.55, 5.28, -0.464, -0.768, -0.304, 18:57:42.329, 1590857862329
157, -1.18, 4.66, -2.05, 8.59, -0.464, -0.768, -0.304, 18:57:42.345, 1590857862345
158, 6.45, 15.44, 8.42, 18.59, -0.464, -0.768, -0.304, 18:57:42.345, 1590857862345
159, 2.19, 5.48, -2.34, 9.56, -0.464, -0.768, -0.304, 18:57:42.346, 1590857862346
160, -1.88, 3.06, -20.01, 6.28, -0.464, -0.768, -0.304, 18:57:42.346, 1590857862346
161, 0.34, -6.21, -66.80, 2.01, -0.464, -0.768, -0.304, 18:57:42.346, 1590857862346
162, 12.50, 16.68, -1.20, 16.55, -0.464, -0.768, -0.304, 18:57:42.346, 1590857862346
163, 8.01, 9.73, 8.03, 13.16, -0.464, -0.768, -0.304, 18:57:42.359, 1590857862359
164, -2.42, 5.28, -6.49, 8.35, -0.464, -0.768, -0.304, 18:57:42.359, 1590857862359
165, -0.55, 4.87, 2.55, 7.82, -0.464, -0.768, -0.304, 18:57:42.391, 1590857862391
166, 15.31, 17.82, 14.53, 20.28, -0.416, -0.976, -0.112, 18:57:42.391, 1590857862391
167, 4.08, 3.62, 6.66, 8.77, -0.416, -0.976, -0.112, 18:57:42.391, 1590857862391
168, -3.18, 1.45, -6.31, 6.91, -0.416, -0.976, -0.112, 18:57:42.391, 1590857862391
169, 6.31, 10.05, -0.92, 16.86, -0.416, -0.976, -0.112, 18:57:42.392, 1590857862392
170, 11.51, 17.83, 11.85, 19.11, -0.416, -0.976, -0.112, 18:57:42.392, 1590857862392
171, 0.33, 4.57, -0.94, 1.66, -0.416, -0.976, -0.112, 18:57:42.393, 1590857862393
172, -2.04, 3.45, -3.43, 4.09, -0.416, -0.976, -0.112, 18:57:42.393, 1590857862393
173, 4.39, 8.35, 2.34, 10.25, -0.416, -0.976, -0.112, 18:57:42.404, 1590857862404
174, 20.78, 16.63, 13.03, 24.79, -0.416, -0.976, -0.112, 18:57:42.404, 1590857862404
175, 8.15, 10.70, 2.51, 11.46, -0.416, -0.976, -0.112, 18:57:42.419, 1590857862419
176, 1.67, 9.25, -2.46, 8.18, -0.416, -0.976, -0.112, 18:57:42.419, 1590857862419
177, 2.68, 12.81, 7.25, 8.46, -0.416, -0.976, -0.112, 18:57:42.434, 1590857862434
178, 18.79, 22.23, 16.29, 23.42, -0.416, -0.976, -0.112, 18:57:42.434, 1590857862434
179, 2.83, 4.64, 8.64, 10.79, -0.416, -0.976, -0.112, 18:57:42.435, 1590857862435
180, 1.58, 9.25, 2.20, 4.86, -0.416, -0.976, -0.112, 18:57:42.435, 1590857862435
181, 3.29, 13.06, 5.47, 9.36, -0.416, -0.976, -0.112, 18:57:42.449, 1590857862449
182, 10.88, 19.71, 15.38, 21.02, -0.416, -0.976, -0.112, 18:57:42.449, 1590857862449
183, 1.88, 5.03, 4.09, 5.94, -0.416, -0.976, -0.112, 18:57:42.464, 1590857862464
184, -2.55, 4.81, 3.54, 2.46, -0.416, -0.976, -0.112, 18:57:42.464, 1590857862464
185, 10.01, 13.79, 8.03, 6.25, -0.416, -0.976, -0.112, 18:57:42.465, 1590857862465
186, 17.91, 18.59, 13.94, 17.41, -0.384, -0.848, -0.288, 18:57:42.465, 1590857862465
187, 3.03, 4.58, 4.20, 7.44, -0.384, -0.848, -0.288, 18:57:42.479, 1590857862479
188, -5.91, 0.93, 2.41, 2.48, -0.384, -0.848, -0.288, 18:57:42.479, 1590857862479
189, 11.32, 11.10, 11.82, 11.02, -0.384, -0.848, -0.288, 18:57:42.494, 1590857862494
190, 20.85, 24.80, 21.76, 23.28, -0.384, -0.848, -0.288, 18:57:42.494, 1590857862494
191, 3.27, 10.67, 0.80, 7.92, -0.384, -0.848, -0.288, 18:57:42.495, 1590857862495
192, -4.75, 2.26, 3.40, 1.56, -0.384, -0.848, -0.288, 18:57:42.495, 1590857862495
193, 7.59, 10.35, 9.92, 14.98, -0.384, -0.848, -0.288, 18:57:42.509, 1590857862509
194, 18.69, 18.00, 12.96, 22.33, -0.384, -0.848, -0.288, 18:57:42.509, 1590857862509
195, 2.16, 4.08, 0.84, 8.91, -0.384, -0.848, -0.288, 18:57:42.524, 1590857862524
196, 1.47, 5.75, 2.19, 1.19, -0.384, -0.848, -0.288, 18:57:42.524, 1590857862524
197, 0.74, 10.53, 4.99, 11.61, -0.384, -0.848, -0.288, 18:57:42.525, 1590857862525
198, 20.26, 16.57, 21.45, 23.00, -0.384, -0.848, -0.288, 18:57:42.525, 1590857862525
199, 2.86, 1.07, 2.53, 2.56, -0.384, -0.848, -0.288, 18:57:42.539, 1590857862539
200, -8.12, 4.25, -0.62, 3.48, -0.384, -0.848, -0.288, 18:57:42.539, 1590857862539
0, 7.68, 13.44, 10.50, 9.42, -0.384, -0.848, -0.288, 18:57:42.540, 1590857862540
1, 19.72, 23.60, 19.22, 15.87, -0.384, -0.848, -0.288, 18:57:42.570, 1590857862570
2, -2.36, 5.45, -1.02, 4.58, -0.384, -0.848, -0.288, 18:57:42.570, 1590857862570
3, -0.73, 5.33, 3.03, 3.46, -0.384, -0.848, -0.288, 18:57:42.571, 1590857862571
4, 13.73, 16.40, 11.35, 14.57, -0.384, -0.848, -0.288, 18:57:42.571, 1590857862571
5, 22.24, 25.78, 16.72, 26.04, -0.384, -0.848, -0.288, 18:57:42.571, 1590857862571
6, -0.84, 6.51, -1.88, 8.00, -0.384, -0.816, -0.320, 18:57:42.571, 1590857862571
7, -3.39, 4.22, -0.70, 3.71, -0.384, -0.816, -0.320, 18:57:42.584, 1590857862584
8, 7.76, 13.69, 11.04, 11.06, -0.384, -0.816, -0.320, 18:57:42.584, 1590857862584
9, 22.87, 24.02, 18.96, 19.68, -0.384, -0.816, -0.320, 18:57:42.599, 1590857862599
10, -1.84, 9.57, 3.40, 2.49, -0.384, -0.816, -0.320, 18:57:42.599, 1590857862599
11, -4.12, 4.90, 0.94, 5.96, -0.384, -0.816, -0.320, 18:57:42.600, 1590857862600
12, 4.02, 10.72, 10.07, 9.11, -0.384, -0.816, -0.320, 18:57:42.600, 1590857862600
13, 20.78, 23.35, 22.26, 22.26, -0.384, -0.816, -0.320, 18:57:42.614, 1590857862614
14, -1.35, 4.23, -2.65, 3.11, -0.384, -0.816, -0.320, 18:57:42.614, 1590857862614
15, -2.43, 6.39, -2.05, 1.20, -0.384, -0.816, -0.320, 18:57:42.630, 1590857862630
16, 9.19, 14.25, 9.25, 12.24, -0.384, -0.816, -0.320, 18:57:42.630, 1590857862630
17, 21.95, 23.61, 18.72, 23.43, -0.384, -0.816, -0.320, 18:57:42.630, 1590857862630
18, -3.12, 3.56, 0.06, 2.53, -0.384, -0.816, -0.320, 18:57:42.630, 1590857862630
19, 1.54, 3.63, -5.86, 2.50, -0.384, -0.816, -0.320, 18:57:42.644, 1590857862644
20, 7.46, 11.07, 10.77, 10.22, -0.384, -0.816, -0.320, 18:57:42.644, 1590857862644
21, 18.70, 27.69, 24.21, 20.59, -0.384, -0.816, -0.320, 18:57:42.659, 1590857862659
22, 1.19, 5.12, 0.40, 2.99, -0.384, -0.816, -0.320, 18:57:42.659, 1590857862659
23, 1.74, 2.40, -0.07, 1.65, -0.384, -0.816, -0.320, 18:57:42.660, 1590857862660
24, 4.86, 12.22, 4.37, 8.27, -0.384, -0.816, -0.320, 18:57:42.660, 1590857862660
25, 20.31, 28.00, 21.68, 19.62, -0.384, -0.816, -0.320, 18:57:42.674, 1590857862674
26, -9.19, -1.55, -2.12, 3.58, -0.384, -0.720, -0.352, 18:57:42.674, 1590857862674
27, -1.54, -1.82, -5.42, 5.86, -0.384, -0.720, -0.352, 18:57:42.690, 1590857862690
28, 9.50, 19.17, 10.64, 14.98, -0.384, -0.720, -0.352, 18:57:42.690, 1590857862690
29, 26.28, 21.11, 24.16, 22.04, -0.384, -0.720, -0.352, 18:57:42.690, 1590857862690
30, 3.10, 5.67, 2.58, 4.10, -0.384, -0.720, -0.352, 18:57:42.690, 1590857862690
31, -3.11, 5.38, 5.88, 1.41, -0.384, -0.720, -0.352, 18:57:42.704, 1590857862704
32, 7.58, 11.00, 6.94, 10.62, -0.384, -0.720, -0.352, 18:57:42.704, 1590857862704
33, 23.01, 21.25, 23.36, 18.24, -0.384, -0.720, -0.352, 18:57:42.719, 1590857862719
34, -0.53, 5.42, -4.60, 6.65, -0.384, -0.720, -0.352, 18:57:42.719, 1590857862719
35, -3.37, 2.12, -5.28, 2.60, -0.384, -0.720, -0.352, 18:57:42.720, 1590857862720
36, 8.57, 14.80, 6.91, 10.58, -0.384, -0.720, -0.352, 18:57:42.720, 1590857862720
37, 22.65, 23.23, 18.23, 22.48, -0.384, -0.720, -0.352, 18:57:42.734, 1590857862734
38, -3.27, 5.25, -5.60, 2.28, -0.384, -0.720, -0.352, 18:57:42.734, 1590857862734
39, 0.77, 4.71, 2.79, 2.12, -0.384, -0.720, -0.352, 18:57:42.750, 1590857862750
40, 12.01, 15.95, 8.75, 12.13, -0.384, -0.720, -0.352, 18:57:42.750, 1590857862750
41, 21.09, 23.68, 17.74, 24.29, -0.384, -0.720, -0.352, 18:57:42.751, 1590857862751
42, -3.57, 1.13, -1.76, 4.29, -0.384, -0.720, -0.352, 18:57:42.751, 1590857862751
43, -0.43, 4.18, -1.50, 0.22, -0.384, -0.720, -0.352, 18:57:42.764, 1590857862764
44, 7.65, 15.77, 10.28, 11.67, -0.384, -0.720, -0.352, 18:57:42.764, 1590857862764
45, 21.46, 28.44, 25.03, 24.43, -0.384, -0.720, -0.352, 18:57:42.779, 1590857862779
46, -2.90, 2.02, -2.27, 3.16, -0.432, -0.592, -0.544, 18:57:42.779, 1590857862779
47, -4.73, 3.09, -1.46, 1.62, -0.432, -0.592, -0.544, 18:57:42.780, 1590857862780
48, 8.97, 15.05, 8.23, 14.09, -0.432, -0.592, -0.544, 18:57:42.780, 1590857862780
49, 22.31, 24.67, 21.54, 20.72, -0.432, -0.592, -0.544, 18:57:42.794, 1590857862794
50, -4.43, -0.61, -2.43, -3.46, -0.432, -0.592, -0.544, 18:57:42.794, 1590857862794
51, 3.09, 4.56, -3.08, 3.07, -0.432, -0.592, -0.544, 18:57:42.809, 1590857862809
52, 11.39, 13.28, 4.33, 13.68, -0.432, -0.592, -0.544, 18:57:42.809, 1590857862809
53, 26.81, 26.05, 20.71, 22.42, -0.432, -0.592, -0.544, 18:57:42.810, 1590857862810
54, -9.77, 1.16, 0.83, 5.11, -0.432, -0.592, -0.544, 18:57:42.810, 1590857862810
55, -8.99, -0.16, 3.32, 3.62, -0.432, -0.592, -0.544, 18:57:42.840, 1590857862840
56, 2.61, 11.08, 11.06, 14.92, -0.432, -0.592, -0.544, 18:57:42.840, 1590857862840
57, 26.03, 27.85, 22.89, 29.84, -0.432, -0.592, -0.544, 18:57:42.841, 1590857862841
58, -6.25, -5.06, -3.57, 3.62, -0.432, -0.592, -0.544, 18:57:42.841, 1590857862841
59, 3.23, 1.68, 4.21, 1.06, -0.432, -0.592, -0.544, 18:57:42.841, 1590857862841
60, 11.65, 13.66, 10.95, 11.75, -0.432, -0.592, -0.544, 18:57:42.841, 1590857862841
61, 24.42, 26.71, 19.55, 26.78, -0.432, -0.592, -0.544, 18:57:42.854, 1590857862854
62, -6.94, 2.68, -1.49, 1.20, -0.432, -0.592, -0.544, 18:57:42.854, 1590857862854
63, -5.41, -0.13, 4.23, 2.00, -0.432, -0.592, -0.544, 18:57:42.870, 1590857862870
64, 8.63, 17.92, 10.94, 16.74, -0.432, -0.592, -0.544, 18:57:42.870, 1590857862870
65, 32.10, 28.96, 22.19, 27.33, -0.432, -0.592, -0.544, 18:57:42.870, 1590857862870
66, -5.86, 0.07, -7.15, -2.22, -0.512, -0.544, -0.656, 18:57:42.870, 1590857862870
67, -5.06, -0.84, -3.35, 3.42, -0.512, -0.544, -0.656, 18:57:42.884, 1590857862884
68, 7.60, 16.21, 9.35, 12.27, -0.512, -0.544, -0.656, 18:57:42.884, 1590857862884
69, 27.16, 23.92, 24.39, 27.60, -0.512, -0.544, -0.656, 18:57:42.899, 1590857862899
70, -1.25, -1.08, -0.77, 0.61, -0.512, -0.544, -0.656, 18:57:42.899, 1590857862899
71, -4.31, -2.67, -5.29, -0.81, -0.512, -0.544, -0.656, 18:57:42.900, 1590857862900
72, 10.08, 13.35, 10.39, 14.32, -0.512, -0.544, -0.656, 18:57:42.900, 1590857862900
73, 26.13, 30.77, 24.18, 26.87, -0.512, -0.544, -0.656, 18:57:42.913, 1590857862913
74, -10.02, -2.80, -3.46, -8.01, -0.512, -0.544, -0.656, 18:57:42.914, 1590857862914
75, -1.28, 3.23, -1.73, 0.12, -0.512, -0.544, -0.656, 18:57:42.929, 1590857862929
76, 13.97, 17.65, 14.95, 12.83, -0.512, -0.544, -0.656, 18:57:42.929, 1590857862929
77, 27.85, 29.56, 23.94, 27.78, -0.512, -0.544, -0.656, 18:57:42.930, 1590857862930
78, -8.61, 3.44, -11.11, -1.75, -0.512, -0.544, -0.656, 18:57:42.930, 1590857862930
79, -3.36, 2.41, -4.04, -2.35, -0.512, -0.544, -0.656, 18:57:42.944, 1590857862944
80, 3.92, 12.18, 8.28, 14.62, -0.512, -0.544, -0.656, 18:57:42.944, 1590857862944
81, 28.80, 29.76, 23.34, 22.37, -0.512, -0.544, -0.656, 18:57:42.959, 1590857862959
82, -11.23, -7.13, -0.84, -2.60, -0.512, -0.544, -0.656, 18:57:42.959, 1590857862959
83, -3.03, 1.33, 2.93, -0.03, -0.512, -0.544, -0.656, 18:57:42.960, 1590857862960
84, 13.05, 15.34, 10.53, 13.05, -0.512, -0.544, -0.656, 18:57:42.960, 1590857862960
85, 28.83, 25.95, 25.52, 26.14, -0.512, -0.544, -0.656, 18:57:42.974, 1590857862974
86, -10.39, -3.93, -7.88, -7.36, -0.512, -0.528, -0.688, 18:57:42.974, 1590857862974
87, -5.76, 4.11, -1.06, -1.98, -0.512, -0.528, -0.688, 18:57:42.990, 1590857862990
88, 16.93, 17.34, 16.05, 13.71, -0.512, -0.528, -0.688, 18:57:42.990, 1590857862990
89, 30.40, 30.36, 27.98, 26.93, -0.512, -0.528, -0.688, 18:57:42.990, 1590857862990
90, -8.07, -5.53, -5.56, -3.83, -0.512, -0.528, -0.688, 18:57:42.990, 1590857862990
91, -3.99, 3.15, -3.25, 1.39, -0.512, -0.528, -0.688, 18:57:43.004, 1590857863004
92, 16.34, 14.01, 4.00, 13.68, -0.512, -0.528, -0.688, 18:57:43.004, 1590857863004
93, 27.90, 29.10, 22.46, 29.00, -0.512, -0.528, -0.688, 18:57:43.020, 1590857863020
94, -12.84, -2.62, -7.09, -2.46, -0.512, -0.528, -0.688, 18:57:43.020, 1590857863020
95, -4.26, 1.67, -3.77, 1.60, -0.512, -0.528, -0.688, 18:57:43.020, 1590857863020
96, 11.84, 15.33, 12.10, 13.41, -0.512, -0.528, -0.688, 18:57:43.020, 1590857863020
97, 27.09, 25.80, 21.01, 26.13, -0.512, -0.528, -0.688, 18:57:43.034, 1590857863034
98, -10.57, -2.83, -8.68, -3.30, -0.512, -0.528, -0.688, 18:57:43.034, 1590857863034
99, -4.82, -1.29, -1.26, 2.14, -0.512, -0.528, -0.688, 18:57:43.049, 1590857863049
100, 12.71, 14.45, 12.27, 14.50, -0.512, -0.528, -0.688, 18:57:43.049, 1590857863049
101, 31.21, 28.49, 25.51, 28.75, -0.512, -0.528, -0.688, 18:57:43.064, 1590857863064
102, -9.76, -2.04, -4.88, -2.82, -0.512, -0.528, -0.688, 18:57:43.064, 1590857863064
103, -4.06, 6.19, -0.60, 0.41, -0.512, -0.528, -0.688, 18:57:43.065, 1590857863065
104, 12.23, 17.40, 10.53, 15.79, -0.512, -0.528, -0.688, 18:57:43.065, 1590857863065
105, 30.03, 31.42, 22.98, 27.43, -0.512, -0.528, -0.688, 18:57:43.079, 1590857863079
106, -13.82, 1.50, -6.84, -1.61, -0.512, -0.512, -0.752, 18:57:43.079, 1590857863079
107, -5.05, 2.63, -2.70, 1.37, -0.512, -0.512, -0.752, 18:57:43.080, 1590857863080
108, 9.77, 17.39, 9.04, 13.16, -0.512, -0.512, -0.752, 18:57:43.080, 1590857863080
109, 27.25, 28.59, 26.06, 28.87, -0.512, -0.512, -0.752, 18:57:43.094, 1590857863094
110, -9.12, -5.64, -5.55, -7.23, -0.512, -0.512, -0.752, 18:57:43.094, 1590857863094
111, -1.22, 6.23, -0.22, 2.07, -0.512, -0.512, -0.752, 18:57:43.126, 1590857863126
112, 17.52, 14.45, 14.25, 16.63, -0.512, -0.512, -0.752, 18:57:43.126, 1590857863126
113, 28.62, 26.67, 24.93, 25.62, -0.512, -0.512, -0.752, 18:57:43.126, 1590857863126
114, -14.30, -0.91, -6.82, -4.05, -0.512, -0.512, -0.752, 18:57:43.126, 1590857863126
115, 1.00, 1.34, -2.59, 2.07, -0.512, -0.512, -0.752, 18:57:43.127, 1590857863127
116, 15.05, 17.51, 12.75, 19.97, -0.512, -0.512, -0.752, 18:57:43.127, 1590857863127
117, 30.90, 29.93, 23.54, 24.28, -0.512, -0.512, -0.752, 18:57:43.128, 1590857863128
118, -12.61, -4.70, -7.24, 0.43, -0.512, -0.512, -0.752, 18:57:43.128, 1590857863128
119, -4.89, 2.53, -2.93, 1.91, -0.512, -0.512, -0.752, 18:57:43.139, 1590857863139
120, 17.66, 17.35, 12.64, 13.62, -0.512, -0.512, -0.752, 18:57:43.139, 1590857863139
121, 28.67, 28.44, 26.18, 26.03, -0.512, -0.512, -0.752, 18:57:43.154, 1590857863154
122, -11.27, -3.53, -3.84, -5.59, -0.512, -0.512, -0.752, 18:57:43.154, 1590857863154
123, -1.72, 0.62, -2.19, 2.40, -0.512, -0.512, -0.752, 18:57:43.169, 1590857863169
124, 11.12, 13.07, 14.24, 14.69, -0.512, -0.512, -0.752, 18:57:43.169, 1590857863169
125, 29.93, 25.91, 22.39, 31.63, -0.512, -0.512, -0.752, 18:57:43.170, 1590857863170
126, -15.68, 4.59, -6.62, -5.01, -0.512, -0.528, -0.864, 18:57:43.170, 1590857863170
127, -4.89, 0.98, -3.78, -1.33, -0.512, -0.528, -0.864, 18:57:43.184, 1590857863184
128, 10.64, 12.81, 13.31, 14.55, -0.512, -0.528, -0.864, 18:57:43.184, 1590857863184
129, 28.76, 27.73, 26.04, 30.00, -0.512, -0.528, -0.864, 18:57:43.200, 1590857863200
130, -13.67, -2.94, -7.58, -5.05, -0.512, -0.528, -0.864, 18:57:43.200, 1590857863200
131, -2.88, 1.78, 1.34, -0.45, -0.512, -0.528, -0.864, 18:57:43.200, 1590857863200
132, 15.74, 17.06, 11.23, 15.61, -0.512, -0.528, -0.864, 18:57:43.201, 1590857863201
133, 28.09, 28.39, 30.75, 32.49, -0.512, -0.528, -0.864, 18:57:43.214, 1590857863214
134, -17.21, -10.38, -11.22, -1.86, -0.512, -0.528, -0.864, 18:57:43.214, 1590857863214
135, -4.40, 0.59, 3.67, 5.80, -0.512, -0.528, -0.864, 18:57:43.229, 1590857863229
136, 14.01, 19.00, 15.54, 15.69, -0.512, -0.528, -0.864, 18:57:43.229, 1590857863229
137, 29.86, 23.77, 22.33, 26.99, -0.512, -0.528, -0.864, 18:57:43.230, 1590857863230
138, -10.74, -9.38, -9.38, -4.07, -0.512, -0.528, -0.864, 18:57:43.230, 1590857863230
139, -1.48, 1.43, -2.77, -1.71, -0.512, -0.528, -0.864, 18:57:43.244, 1590857863244
140, 11.82, 16.46, 16.68, 17.11, -0.512, -0.528, -0.864, 18:57:43.244, 1590857863244
141, 23.72, 32.72, 26.13, 25.39, -0.512, -0.528, -0.864, 18:57:43.274, 1590857863274
142, -10.47, -3.76, -7.06, -4.10, -0.512, -0.528, -0.864, 18:57:43.274, 1590857863274
143, -4.92, 0.12, -5.56, 1.64, -0.512, -0.528, -0.864, 18:57:43.321, 1590857863321
144, 16.12, 17.99, 17.92, 11.80, -0.512, -0.528, -0.864, 18:57:43.321, 1590857863321
145, 30.44, 31.39, 25.31, 27.67, -0.512, -0.528, -0.864, 18:57:43.321, 1590857863321
146, -13.34, -8.99, -7.93, -4.69, -0.528, -0.528, -0.864, 18:57:43.321, 1590857863321
147, -5.76, 3.21, -1.76, 2.60, -0.528, -0.528, -0.864, 18:57:43.322, 1590857863322
148, 16.48, 18.89, 16.53, 14.52, -0.528, -0.528, -0.864, 18:57:43.322, 1590857863322
149, 26.20, 25.35, 22.22, 25.39, -0.528, -0.528, -0.864, 18:57:43.338, 1590857863338
150, -10.87, -3.36, -7.49, -7.45, -0.528, -0.528, -0.864, 18:57:43.338, 1590857863338
151, -5.72, -0.29, -5.10, 3.17, -0.528, -0.528, -0.864, 18:57:43.338, 1590857863338
152, 13.50, 18.27, 17.07, 16.67, -0.528, -0.528, -0.864, 18:57:43.338, 1590857863338
153, 23.73, 25.71, 21.48, 24.98, -0.528, -0.528, -0.864, 18:57:43.339, 1590857863339
154, -9.09, -6.16, -6.54, -7.24, -0.528, -0.528, -0.864, 18:57:43.339, 1590857863339
155, -4.36, -1.33, -4.42, 0.84, -0.528, -0.528, -0.864, 18:57:43.339, 1590857863339
156, 11.45, 18.88, 11.83, 19.21, -0.528, -0.528, -0.864, 18:57:43.339, 1590857863339
157, 25.18, 22.08, 19.08, 26.07, -0.528, -0.528, -0.864, 18:57:43.350, 1590857863350
158, -15.06, 1.49, -13.44, -8.40, -0.528, -0.528, -0.864, 18:57:43.350, 1590857863350
159, -2.31, 1.51, 2.40, 1.90, -0.528, -0.528, -0.864, 18:57:43.351, 1590857863351
160, 11.72, 16.67, 15.26, 17.19, -0.528, -0.528, -0.864, 18:57:43.351, 1590857863351
161, 35.28, 34.43, 27.82, 32.27, -0.528, -0.528, -0.864, 18:57:43.351, 1590857863351
162, -22.32, -10.03, -12.49, -7.29, -0.528, -0.528, -0.864, 18:57:43.351, 1590857863351
163, -3.33, 2.34, -4.82, -0.44, -0.528, -0.528, -0.864, 18:57:43.364, 1590857863364
164, 15.33, 20.24, 17.04, 17.01, -0.528, -0.528, -0.864, 18:57:43.364, 1590857863364
165, 26.74, 26.36, 13.30, 27.53, -0.528, -0.528, -0.864, 18:57:43.396, 1590857863396
166, -10.84, -5.30, -9.75, -6.75, -0.512, -0.496, -0.672, 18:57:43.396, 1590857863396
167, -5.87, 5.02, 1.65, 0.67, -0.512, -0.496, -0.672, 18:57:43.396, 1590857863396
168, 12.88, 18.12, 14.19, 19.03, -0.512, -0.496, -0.672, 18:57:43.396, 1590857863396
169, 24.99, 29.13, 25.04, 29.14, -0.512, -0.496, -0.672, 18:57:43.397, 1590857863397
170, -8.88, -2.56, -7.10, -6.57, -0.512, -0.496, -0.672, 18:57:43.397, 1590857863397
171, -7.69, 1.40, 1.53, 0.87, -0.512, -0.496, -0.672, 18:57:43.398, 1590857863398
172, 14.25, 22.11, 14.52, 9.89, -0.512, -0.496, -0.672, 18:57:43.398, 1590857863398
173, 21.42, 25.12, 20.44, 26.32, -0.512, -0.496, -0.672, 18:57:43.409, 1590857863409
174, -11.43, -5.53, -10.11, -1.77, -0.512, -0.496, -0.672, 18:57:43.409, 1590857863409
175, -2.46, -0.40, -3.04, 1.39, -0.512, -0.496, -0.672, 18:57:43.424, 1590857863424
176, 16.87, 19.63, 12.12, 13.30, -0.512, -0.496, -0.672, 18:57:43.424, 1590857863424
177, 26.27, 27.97, 23.25, 26.48, -0.512, -0.496, -0.672, 18:57:43.456, 1590857863456
178, -13.34, -6.14, -2.93, -1.42, -0.512, -0.496, -0.672, 18:57:43.456, 1590857863456
179, -1.52, 3.21, 0.92, 1.38, -0.512, -0.496, -0.672, 18:57:43.457, 1590857863457
180, 16.18, 17.39, 8.89, 12.38, -0.512, -0.496, -0.672, 18:57:43.457, 1590857863457
181, 27.88, 29.23, 17.54, 26.89, -0.512, -0.496, -0.672, 18:57:43.457, 1590857863457
182, -11.25, -5.82, -9.63, -2.60, -0.512, -0.496, -0.672, 18:57:43.457, 1590857863457
183, -5.37, 0.59, -5.81, 1.20, -0.512, -0.496, -0.672, 18:57:43.458, 1590857863458
184, 11.85, 16.30, 7.24, 15.25, -0.512, -0.496, -0.672, 18:57:43.458, 1590857863458
185, 24.67, 25.16, 18.03, 24.92, -0.512, -0.496, -0.672, 18:57:43.469, 1590857863469
186, -13.53, -5.24, -4.35, -4.38, -0.496, -0.544, -0.688, 18:57:43.469, 1590857863469
187, -0.91, 0.32, -0.90, 0.29, -0.496, -0.544, -0.688, 18:57:43.484, 1590857863484
188, 18.59, 14.04, 7.92, 12.87, -0.496, -0.544, -0.688, 18:57:43.484, 1590857863484
189, 28.83, 27.83, 20.15, 23.20, -0.496, -0.544, -0.688, 18:57:43.500, 1590857863500
190, -16.07, -1.60, -11.58, -3.58, -0.496, -0.544, -0.688, 18:57:43.500, 1590857863500
191, -3.06, 2.64, -3.09, 3.03, -0.496, -0.544, -0.688, 18:57:43.500, 1590857863500
192, 13.43, 15.70, 12.43, 17.51, -0.496, -0.544, -0.688, 18:57:43.500, 1590857863500
193, 24.41, 29.97, 19.86, 23.16, -0.496, -0.544, -0.688, 18:57:43.514, 1590857863514
194, -14.72, -7.06, -7.20, -1.71, -0.496, -0.544, -0.688, 18:57:43.514, 1590857863514
195, -2.29, 2.90, 2.55, 4.22, -0.496, -0.544, -0.688, 18:57:43.529, 1590857863529
196, 11.86, 16.21, 9.13, 17.68, -0.496, -0.544, -0.688, 18:57:43.529, 1590857863529
197, 29.54, 25.07, 20.01, 25.12, -0.496, -0.544, -0.688, 18:57:43.530, 1590857863530
198, -13.62, -7.40, -12.86, -7.03, -0.496, -0.544, -0.688, 18:57:43.530, 1590857863530
199, -4.51, 3.76, 0.58, -1.31, -0.496, -0.544, -0.688, 18:57:43.545, 1590857863545
200, 11.38, 15.56, 11.79, 17.29, -0.496, -0.544, -0.688, 18:57:43.545, 1590857863545
0, 27.03, 20.99, 15.56, 22.07, -0.496, -0.544, -0.688, 18:57:43.545, 1590857863545
1, -6.51, -0.75, -4.39, -3.87, -0.496, -0.544, -0.688, 18:57:43.559, 1590857863559
2, -4.71, 2.19, -2.84, 1.62, -0.496, -0.544, -0.688, 18:57:43.559, 1590857863559
3, 12.90, 17.70, 13.56, 19.11, -0.496, -0.544, -0.688, 18:57:43.574, 1590857863574
4, 27.80, 24.79, 23.66, 19.36, -0.496, -0.544, -0.688, 18:57:43.574, 1590857863574
5, -6.95, -1.95, -4.84, -7.14, -0.496, -0.544, -0.688, 18:57:43.575, 1590857863575
6, -2.72, 2.20, 4.07, 0.91, -0.480, -0.576, -0.576, 18:57:43.575, 1590857863575
7, 16.66, 13.82, 16.17, 14.02, -0.480, -0.576, -0.576, 18:57:43.589, 1590857863589
8, 19.02, 22.81, 22.39, 20.95, -0.480, -0.576, -0.576, 18:57:43.589, 1590857863589
9, -12.28, -1.93, -5.41, -6.27, -0.480, -0.576, -0.576, 18:57:43.621, 1590857863621
10, -3.84, 4.64, 2.44, 0.41, -0.480, -0.576, -0.576, 18:57:43.621, 1590857863621
11, 12.13, 18.48, 14.57, 14.29, -0.480, -0.576, -0.576, 18:57:43.621, 1590857863621
12, 21.94, 29.51, 21.25, 25.56, -0.480, -0.576, -0.576, 18:57:43.621, 1590857863621
13, -10.96, -2.03, -4.14, -0.44, -0.480, -0.576, -0.576, 18:57:43.622, 1590857863622
14, 0.59, 3.80, -0.03, -0.28, -0.480, -0.576, -0.576, 18:57:43.622, 1590857863622
15, 11.18, 18.80, 12.81, 16.17, -0.480, -0.576, -0.576, 18:57:43.623, 1590857863623
16, 25.81, 22.11, 24.99, 21.77, -0.480, -0.576, -0.576, 18:57:43.623, 1590857863623
17, -12.52, -5.85, -8.57, -6.95, -0.480, -0.576, -0.576, 18:57:43.634, 1590857863634
18, 0.38, 4.90, 0.06, 1.59, -0.480, -0.576, -0.576, 18:57:43.634, 1590857863634
19, 15.99, 15.76, 10.80, 20.12, -0.480, -0.576, -0.576, 18:57:43.649, 1590857863649
20, 27.04, 26.62, 23.05, 26.06, -0.480, -0.576, -0.576, 18:57:43.649, 1590857863649
21, -12.61, -6.84, -9.72, -9.76, -0.480, -0.576, -0.576, 18:57:43.664, 1590857863664
22, -1.57, -0.31, -2.47, -2.64, -0.480, -0.576, -0.576, 18:57:43.664, 1590857863664
23, 13.52, 21.51, 14.56, 10.97, -0.480, -0.576, -0.576, 18:57:43.679, 1590857863679
24, 24.37, 28.43, 17.06, 21.59, -0.480, -0.576, -0.576, 18:57:43.679, 1590857863679
25, -9.48, -0.52, 0.11, -3.75, -0.480, -0.576, -0.576, 18:57:43.680, 1590857863680
26, -0.35, 1.85, 1.78, -0.48, -0.432, -0.592, -0.480, 18:57:43.680, 1590857863680
27, 20.42, 15.97, 16.74, 17.13, -0.432, -0.592, -0.480, 18:57:43.694, 1590857863694
28, 20.55, 24.42, 24.06, 28.88, -0.432, -0.592, -0.480, 18:57:43.694, 1590857863694
29, -15.19, -2.87, -5.58, -4.56, -0.432, -0.592, -0.480, 18:57:43.695, 1590857863695
30, -1.30, 2.55, -0.43, 3.04, -0.432, -0.592, -0.480, 18:57:43.695, 1590857863695
31, 15.62, 14.44, 11.13, 17.44, -0.432, -0.592, -0.480, 18:57:43.709, 1590857863709
32, 23.22, 20.05, 17.17, 23.95, -0.432, -0.592, -0.480, 18:57:43.709, 1590857863709
33, -10.36, -1.50, -5.57, -4.63, -0.432, -0.592, -0.480, 18:57:43.724, 1590857863724
34, -4.37, 2.63, 3.35, 3.03, -0.432, -0.592, -0.480, 18:57:43.724, 1590857863724
35, 20.55, 18.90, 17.79, 18.42, -0.432, -0.592, -0.480, 18:57:43.725, 1590857863725
36, 22.30, 21.37, 16.82, 17.29, -0.432, -0.592, -0.480, 18:57:43.725, 1590857863725
37, -4.10, -5.01, -2.81, -9.78, -0.432, -0.592, -0.480, 18:57:43.739, 1590857863739
38, -4.21, -0.52, 3.13, 1.93, -0.432, -0.592, -0.480, 18:57:43.739, 1590857863739
39, 14.81, 17.28, 12.00, 20.36, -0.432, -0.592, -0.480, 18:57:43.755, 1590857863755
40, 22.09, 27.57, 24.93, 24.64, -0.432, -0.592, -0.480, 18:57:43.755, 1590857863755
41, -7.98, -1.24, -6.59, -4.37, -0.432, -0.592, -0.480, 18:57:43.755, 1590857863755
42, 0.06, 0.96, -0.58, 4.40, -0.432, -0.592, -0.480, 18:57:43.755, 1590857863755
43, 13.05, 19.59, 17.02, 19.60, -0.432, -0.592, -0.480, 18:57:43.769, 1590857863769
44, 20.82, 27.49, 18.69, 22.87, -0.432, -0.592, -0.480, 18:57:43.769, 1590857863769
45, -10.21, 0.72, -1.57, -6.70, -0.432, -0.592, -0.480, 18:57:43.785, 1590857863785
46, -1.09, 4.29, -1.63, 1.83, -0.320, -0.656, -0.352, 18:57:43.785, 1590857863785
47, 12.99, 17.29, 15.58, 17.69, -0.320, -0.656, -0.352, 18:57:43.786, 1590857863786
48, 25.74, 26.26, 21.85, 23.56, -0.320, -0.656, -0.352, 18:57:43.786, 1590857863786
49, -6.96, -2.36, -1.64, 0.30, -0.320, -0.656, -0.352, 18:57:43.799, 1590857863799
50, -5.90, 4.72, 3.63, 4.01, -0.320, -0.656, -0.352, 18:57:43.799, 1590857863799
51, 17.15, 16.29, 13.11, 14.05, -0.320, -0.656, -0.352, 18:57:43.814, 1590857863814
52, 22.61, 24.14, 19.99, 26.16, -0.320, -0.656, -0.352, 18:57:43.814, 1590857863814
53, -5.94, -2.77, -5.03, -5.90, -0.320, -0.656, -0.352, 18:57:43.815, 1590857863815
54, -2.25, 5.43, 3.17, 4.40, -0.320, -0.656, -0.352, 18:57:43.815, 1590857863815
55, 14.03, 23.20, 15.65, 18.70, -0.320, -0.656, -0.352, 18:57:43.829, 1590857863829
56, 20.86, 26.96, 20.92, 23.72, -0.320, -0.656, -0.352, 18:57:43.829, 1590857863829
57, -5.92, -2.93, -4.61, -1.70, -0.320, -0.656, -0.352, 18:57:43.861, 1590857863861
58, -1.24, 6.81, 1.48, 2.54, -0.320, -0.656, -0.352, 18:57:43.861, 1590857863861
59, 13.26, 21.36, 16.69, 17.13, -0.320, -0.656, -0.352, 18:57:43.861, 1590857863861
60, 19.34, 27.46, 23.79, 21.80, -0.320, -0.656, -0.352, 18:57:43.861, 1590857863861
61, -6.65, 0.66, -3.07, 2.68, -0.320, -0.656, -0.352, 18:57:43.862, 1590857863862
62, -3.28, 3.42, -3.41, 3.44, -0.320, -0.656, -0.352, 18:57:43.862, 1590857863862
63, 12.51, 20.50, 13.63, 17.91, -0.320, -0.656, -0.352, 18:57:43.863, 1590857863863
64, 26.05, 22.27, 17.81, 24.34, -0.320, -0.656, -0.352, 18:57:43.863, 1590857863863
65, -11.48, -10.27, -5.50, 2.50, -0.320, -0.656, -0.352, 18:57:43.874, 1590857863874
66, -3.46, 6.74, 3.34, 4.97, -0.160, -0.736, -0.096, 18:57:43.874, 1590857863874
67, 11.47, 17.65, 14.25, 17.30, -0.160, -0.736, -0.096, 18:57:43.889, 1590857863889
68, 22.76, 26.90, 23.42, 25.38, -0.160, -0.736, -0.096, 18:57:43.889, 1590857863889
69, -10.67, 0.58, -3.36, -3.38, -0.160, -0.736, -0.096, 18:57:43.905, 1590857863905
70, -2.18, 2.75, 0.62, 3.63, -0.160, -0.736, -0.096, 18:57:43.905, 1590857863905
71, 13.12, 11.05, 10.42, 12.63, -0.160, -0.736, -0.096, 18:57:43.905, 1590857863905
72, 23.44, 25.03, 16.69, 23.56, -0.160, -0.736, -0.096, 18:57:43.905, 1590857863905
73, -7.95, -0.95, 1.54, -2.87, -0.160, -0.736, -0.096, 18:57:43.919, 1590857863919
74, -7.41, -0.54, 3.77, -0.49, -0.160, -0.736, -0.096, 18:57:43.919, 1590857863919
75, 13.05, 15.98, 15.43, 16.79, -0.160, -0.736, -0.096, 18:57:43.934, 1590857863934
76, 21.49, 26.59, 25.13, 25.71, -0.160, -0.736, -0.096, 18:57:43.934, 1590857863934
77, -6.31, -3.67, -5.07, -2.55, -0.160, -0.736, -0.096, 18:57:43.950, 1590857863950
78, -6.02, 5.23, -2.91, 0.51, -0.160, -0.736, -0.096, 18:57:43.950, 1590857863950
79, 13.37, 19.24, 9.89, 13.15, -0.160, -0.736, -0.096, 18:57:43.950, 1590857863950
80, 21.08, 20.90, 11.65, 20.43, -0.160, -0.736, -0.096, 18:57:43.950, 1590857863950
81, -5.60, 2.54, -5.65, 1.55, -0.160, -0.736, -0.096, 18:57:43.965, 1590857863965
82, 0.76, 9.77, 5.99, 2.72, -0.160, -0.736, -0.096, 18:57:43.965, 1590857863965
83, 13.98, 19.21, 11.28, 9.68, -0.160, -0.736, -0.096, 18:57:43.965, 1590857863965
84, 19.13, 23.29, 21.35, 24.81, -0.160, -0.736, -0.096, 18:57:43.965, 1590857863965
85, -8.02, 2.91, -0.08, 0.31, -0.160, -0.736, -0.096, 18:57:43.979, 1590857863979
86, -3.30, 5.12, 0.98, -2.82, -0.032, -0.880, 0.064, 18:57:43.979, 1590857863979
87, 9.68, 20.11, 7.16, 15.11, -0.032, -0.880, 0.064, 18:57:43.994, 1590857863994
88, 20.19, 25.81, 19.57, 20.45, -0.032, -0.880, 0.064, 18:57:43.994, 1590857863994
89, -1.79, -2.15, 0.46, -0.77, -0.032, -0.880, 0.064, 18:57:44.009, 1590857864009
90, -2.99, 2.11, 1.29, 4.77, -0.032, -0.880, 0.064, 18:57:44.009, 1590857864009
91, 13.48, 17.24, 10.82, 14.17, -0.032, -0.880, 0.064, 18:57:44.010, 1590857864010
92, 23.96, 18.84, 18.29, 21.71, -0.032, -0.880, 0.064, 18:57:44.010, 1590857864010
93, -12.34, -0.10, -1.82, 3.49, -0.032, -0.880, 0.064, 18:57:44.025, 1590857864025
94, -1.17, 6.04, -4.89, 7.06, -0.032, -0.880, 0.064, 18:57:44.025, 1590857864025
95, 9.34, 14.68, 11.44, 15.29, -0.032, -0.880, 0.064, 18:57:44.025, 1590857864025
96, 19.72, 25.14, 20.19, 22.33, -0.032, -0.880, 0.064, 18:57:44.025, 1590857864025
97, -4.93, -4.46, -3.56, 0.88, -0.032, -0.880, 0.064, 18:57:44.071, 1590857864071
98, -3.84, 4.33, 1.32, 1.92, -0.032, -0.880, 0.064, 18:57:44.071, 1590857864071
99, 12.61, 16.27, 11.70, 12.61, -0.032, -0.880, 0.064, 18:57:44.072, 1590857864072
100, 22.97, 24.42, 19.63, 20.11, -0.032, -0.880, 0.064, 18:57:44.072, 1590857864072
101, -10.23, -3.50, -2.43, -2.09, -0.032, -0.880, 0.064, 18:57:44.073, 1590857864073
102, -6.58, 2.42, 0.75, 1.10, -0.032, -0.880, 0.064, 18:57:44.073, 1590857864073
103, 13.17, 15.84, 12.52, 14.91, -0.032, -0.880, 0.064, 18:57:44.073, 1590857864073
104, 21.41, 18.95, 18.97, 18.77, -0.032, -0.880, 0.064, 18:57:44.073, 1590857864073
105, -10.25, -2.45, -6.54, -4.18, -0.032, -0.880, 0.064, 18:57:44.085, 1590857864085
106, 0.54, 5.74, 0.13, 4.05, 0.064, -1.120, 0.080, 18:57:44.085, 1590857864085
107, 10.89, 15.37, 9.97, 15.27, 0.064, -1.120, 0.080, 18:57:44.086, 1590857864086
108, 20.25, 21.02, 18.37, 21.69, 0.064, -1.120, 0.080, 18:57:44.086, 1590857864086
109, -7.10, -0.71, -2.37, -1.76, 0.064, -1.120, 0.080, 18:57:44.115, 1590857864115
110, -5.91, -0.16, -0.18, 2.46, 0.064, -1.120, 0.080, 18:57:44.115, 1590857864115
111, 15.26, 17.26, 11.45, 13.63, 0.064, -1.120, 0.080, 18:57:44.116, 1590857864116
112, 27.75, 23.65, 17.69, 23.21, 0.064, -1.120, 0.080, 18:57:44.116, 1590857864116
113, -7.96, -2.65, -2.95, -2.61, 0.064, -1.120, 0.080, 18:57:44.116, 1590857864116
114, -3.64, 7.12, 0.43, 1.03, 0.064, -1.120, 0.080, 18:57:44.116, 1590857864116
115, 9.40, 18.12, 12.24, 8.01, 0.064, -1.120, 0.080, 18:57:44.129, 1590857864129
116, 17.96, 23.30, 18.52, 21.28, 0.064, -1.120, 0.080, 18:57:44.129, 1590857864129
117, -6.95, -3.46, -3.83, -1.16, 0.064, -1.120, 0.080, 18:57:44.144, 1590857864144
118, -2.62, 2.31, 0.72, 2.41, 0.064, -1.120, 0.080, 18:57:44.144, 1590857864144
119, 11.66, 19.48, 10.80, 13.11, 0.064, -1.120, 0.080, 18:57:44.145, 1590857864145
120, 21.77, 21.78, 16.49, 24.56, 0.064, -1.120, 0.080, 18:57:44.145, 1590857864145
121, -11.66, 4.93, -1.50, 1.94, 0.064, -1.120, 0.080, 18:57:44.175, 1590857864175
122, -3.80, 4.51, -1.23, 3.32, 0.064, -1.120, 0.080, 18:57:44.175, 1590857864175
123, 11.37, 14.51, 10.96, 14.01, 0.064, -1.120, 0.080, 18:57:44.176, 1590857864176
124, 21.39, 18.44, 18.92, 18.29, 0.064, -1.120, 0.080, 18:57:44.176, 1590857864176
125, -4.10, -0.52, -3.84, 5.13, 0.064, -1.120, 0.080, 18:57:44.176, 1590857864176
126, -2.60, 3.91, 0.82, 2.18, 0.064, -1.168, 0.048, 18:57:44.176, 1590857864176
127, 11.87, 19.20, 13.71, 12.97, 0.064, -1.168, 0.048, 18:57:44.189, 1590857864189
128, 23.40, 25.14, 21.11, 24.24, 0.064, -1.168, 0.048, 18:57:44.189, 1590857864189
129, -8.33, 1.61, -6.30, -2.42, 0.064, -1.168, 0.048, 18:57:44.205, 1590857864205
130, -2.90, 5.69, -0.36, 6.60, 0.064, -1.168, 0.048, 18:57:44.205, 1590857864205
131, 15.40, 17.13, 12.18, 14.56, 0.064, -1.168, 0.048, 18:57:44.205, 1590857864205
132, 21.64, 26.15, 22.55, 22.91, 0.064, -1.168, 0.048, 18:57:44.205, 1590857864205
133, -8.63, -0.28, -4.17, 0.64, 0.064, -1.168, 0.048, 18:57:44.219, 1590857864219
134, -2.08, 1.06, -4.18, 2.08, 0.064, -1.168, 0.048, 18:57:44.219, 1590857864219
135, 15.38, 9.13, 11.81, 15.87, 0.064, -1.168, 0.048, 18:57:44.251, 1590857864251
136, 23.64, 19.75, 19.93, 23.09, 0.064, -1.168, 0.048, 18:57:44.251, 1590857864251
137, -1.77, 0.55, -10.25, -0.41, 0.064, -1.168, 0.048, 18:57:44.252, 1590857864252
138, -0.68, 8.41, -2.87, 1.12, 0.064, -1.168, 0.048, 18:57:44.252, 1590857864252
139, 14.22, 16.19, 5.85, 14.56, 0.064, -1.168, 0.048, 18:57:44.252, 1590857864252
140, 22.86, 20.36, 25.15, 22.88, 0.064, -1.168, 0.048, 18:57:44.252, 1590857864252
141, -6.83, -4.08, -5.47, -1.34, 0.064, -1.168, 0.048, 18:57:44.253, 1590857864253
142, -0.77, -1.08, -0.98, 4.22, 0.064, -1.168, 0.048, 18:57:44.253, 1590857864253
143, 12.59, 14.71, 7.45, 11.50, 0.064, -1.168, 0.048, 18:57:44.264, 1590857864264
144, 26.19, 24.79, 23.16, 23.29, 0.064, -1.168, 0.048, 18:57:44.264, 1590857864264
145, -9.32, -0.93, -4.65, -0.49, 0.064, -1.168, 0.048, 18:57:44.295, 1590857864295
146, -1.90, 0.89, -1.42, 1.67, 0.048, -1.136, 0.048, 18:57:44.295, 1590857864295
147, 10.43, 15.38, 14.70, 12.39, 0.048, -1.136, 0.048, 18:57:44.296, 1590857864296
148, 23.37, 19.84, 18.62, 21.71, 0.048, -1.136, 0.048, 18:57:44.296, 1590857864296
149, -2.88, -1.81, -6.18, -3.45, 0.048, -1.136, 0.048, 18:57:44.296, 1590857864296
150, -1.99, 2.38, -4.61, 1.39, 0.048, -1.136, 0.048, 18:57:44.296, 1590857864296
151, 8.87, 13.31, 12.71, 15.59, 0.048, -1.136, 0.048, 18:57:44.309, 1590857864309
152, 30.53, 29.35, 23.03, 22.84, 0.048, -1.136, 0.048, 18:57:44.309, 1590857864309
153, -11.83, -7.03, -9.45, -5.36, 0.048, -1.136, 0.048, 18:57:44.325, 1590857864325
154, 1.77, 2.42, -1.47, -1.20, 0.048, -1.136, 0.048, 18:57:44.325, 1590857864325
155, 17.75, 19.75, 11.33, 17.05, 0.048, -1.136, 0.048, 18:57:44.325, 1590857864325
156, 23.98, 24.12, 22.86, 23.92, 0.048, -1.136, 0.048, 18:57:44.325, 1590857864325
157, -4.57, 3.07, -10.59, -4.46, 0.048, -1.136, 0.048, 18:57:44.339, 1590857864339
158, -6.12, 4.56, -0.76, 1.49, 0.048, -1.136, 0.048, 18:57:44.339, 1590857864339
159, 12.55, 11.33, 19.67, 17.05, 0.048, -1.136, 0.048, 18:57:44.354, 1590857864354
160, 26.88, 26.86, 19.43, 25.11, 0.048, -1.136, 0.048, 18:57:44.354, 1590857864354
161, -11.06, -1.58, -4.63, -2.37, 0.048, -1.136, 0.048, 18:57:44.355, 1590857864355
162, -3.10, 5.13, 5.42, 5.67, 0.048, -1.136, 0.048, 18:57:44.355, 1590857864355
163, 18.37, 12.07, 11.28, 17.24, 0.048, -1.136, 0.048, 18:57:44.369, 1590857864369
164, 23.06, 24.22, 22.67, 22.55, 0.048, -1.136, 0.048, 18:57:44.369, 1590857864369
165, -10.51, -3.20, -1.29, -10.48, 0.048, -1.136, 0.048, 18:57:44.384, 1590857864384
166, -5.54, 4.13, 3.80, -0.47, 0.000, -1.120, -0.032, 18:57:44.384, 1590857864384
167, 12.57, 16.48, 11.05, 16.09, 0.000, -1.120, -0.032, 18:57:44.385, 1590857864385
168, 22.12, 25.28, 14.83, 22.22, 0.000, -1.120, -0.032, 18:57:44.385, 1590857864385
169, -9.02, -0.98, -6.70, -3.81, 0.000, -1.120, -0.032, 18:57:44.399, 1590857864399
170, -2.68, -0.24, -6.91, -0.15, 0.000, -1.120, -0.032, 18:57:44.399, 1590857864399
171, 17.74, 14.38, 14.31, 13.36, 0.000, -1.120, -0.032, 18:57:44.414, 1590857864414
172, 21.56, 22.48, 12.90, 23.36, 0.000, -1.120, -0.032, 18:57:44.414, 1590857864414
173, -8.41, -4.57, -6.71, -1.97, 0.000, -1.120, -0.032, 18:57:44.415, 1590857864415
174, -5.32, -5.83, 4.13, 2.98, 0.000, -1.120, -0.032, 18:57:44.415, 1590857864415
175, 15.66, 23.50, 13.73, 12.32, 0.000, -1.120, -0.032, 18:57:44.429, 1590857864429
176, 18.33, 20.29, 16.82, 25.05, 0.000, -1.120, -0.032, 18:57:44.429, 1590857864429
177, -7.32, -4.47, -5.15, -0.86, 0.000, -1.120, -0.032, 18:57:44.444, 1590857864444
178, -1.64, 1.07, 1.52, 4.47, 0.000, -1.120, -0.032, 18:57:44.444, 1590857864444
179, 13.89, 19.60, 12.83, 18.91, 0.000, -1.120, -0.032, 18:57:44.445, 1590857864445
180, 25.24, 21.43, 19.56, 25.32, 0.000, -1.120, -0.032, 18:57:44.445, 1590857864445
181, -7.69, -6.40, -6.14, -3.60, 0.000, -1.120, -0.032, 18:57:44.459, 1590857864459
182, -5.21, 3.66, -1.61, 2.28, 0.000, -1.120, -0.032, 18:57:44.459, 1590857864459
183, 13.96, 22.61, 11.48, 12.61, 0.000, -1.120, -0.032, 18:57:44.489, 1590857864489
184, 26.32, 23.72, 17.46, 26.72, 0.000, -1.120, -0.032, 18:57:44.489, 1590857864489
185, -14.30, -1.50, -3.41, -4.16, 0.000, -1.120, -0.032, 18:57:44.506, 1590857864506
186, -1.80, 0.08, -2.18, -0.10, 0.000, -1.008, 0.112, 18:57:44.506, 1590857864506
187, 13.81, 17.25, 7.78, 15.53, 0.000, -1.008, 0.112, 18:57:44.507, 1590857864507
188, 20.66, 23.98, 22.01, 29.50, 0.000, -1.008, 0.112, 18:57:44.507, 1590857864507
189, -12.87, -0.02, -6.32, -3.10, 0.000, -1.008, 0.112, 18:57:44.508, 1590857864508
190, -1.58, 5.49, -6.93, 4.08, 0.000, -1.008, 0.112, 18:57:44.508, 1590857864508
191, 9.65, 17.05, 13.54, 14.97, 0.000, -1.008, 0.112, 18:57:44.508, 1590857864508
192, 24.64, 24.43, 23.93, 28.08, 0.000, -1.008, 0.112, 18:57:44.508, 1590857864508
193, -8.16, 4.30, -6.25, -7.41, 0.000, -1.008, 0.112, 18:57:44.519, 1590857864519
194, -1.96, 6.58, -3.30, -0.96, 0.000, -1.008, 0.112, 18:57:44.519, 1590857864519
195, 10.39, 12.83, 12.92, 14.13, 0.000, -1.008, 0.112, 18:57:44.535, 1590857864535
196, 21.58, 24.13, 18.08, 21.02, 0.000, -1.008, 0.112, 18:57:44.535, 1590857864535
197, -10.97, 0.17, -4.17, -7.36, 0.000, -1.008, 0.112, 18:57:44.536, 1590857864536
198, -2.88, -2.31, 2.09, 0.58, 0.000, -1.008, 0.112, 18:57:44.536, 1590857864536
199, 17.05, 19.42, 15.39, 18.22, 0.000, -1.008, 0.112, 18:57:44.581, 1590857864581
200, 18.93, 24.81, 11.79, 19.93, 0.000, -1.008, 0.112, 18:57:44.581, 1590857864581
0, -5.37, 2.80, -4.02, -4.04, 0.000, -1.008, 0.112, 18:57:44.582, 1590857864582
1, 0.59, 3.96, 2.91, 5.05, 0.000, -1.008, 0.112, 18:57:44.582, 1590857864582
2, 16.31, 12.92, 15.98, 18.18, 0.000, -1.008, 0.112, 18:57:44.582, 1590857864582
3, 22.48, 22.87, 17.58, 26.41, 0.000, -1.008, 0.112, 18:57:44.583, 1590857864583
4, -9.92, 2.41, -5.61, -2.09, 0.000, -1.008, 0.112, 18:57:44.583, 1590857864583
5, -2.55, 3.30, -2.08, 2.94, 0.000, -1.008, 0.112, 18:57:44.611, 1590857864611
6, 12.36, 14.02, 15.41, 15.05, -0.016, -1.024, 0.176, 18:57:44.611, 1590857864611
7, 21.49, 23.51, 18.82, 26.98, -0.016, -1.024, 0.176, 18:57:44.611, 1590857864611
8, -15.34, -3.92, -7.69, -4.27, -0.016, -1.024, 0.176, 18:57:44.611, 1590857864611
9, 2.04, 1.47, 1.73, 2.21, -0.016, -1.024, 0.176, 18:57:44.612, 1590857864612
10, 13.73, 21.55, 13.16, 17.68, -0.016, -1.024, 0.176, 18:57:44.612, 1590857864612
11, 17.65, 21.51, 19.36, 23.11, -0.016, -1.024, 0.176, 18:57:44.613, 1590857864613
12, -11.76, -3.35, -8.13, -3.57, -0.016, -1.024, 0.176, 18:57:44.613, 1590857864613
13, -2.19, 3.72, -5.56, 0.30, -0.016, -1.024, 0.176, 18:57:44.624, 1590857864624
14, 10.90, 17.68, 12.43, 13.09, -0.016, -1.024, 0.176, 18:57:44.624, 1590857864624
15, 21.97, 25.17, 20.92, 26.02, -0.016, -1.024, 0.176, 18:57:44.639, 1590857864639
16, -5.75, -4.35, -2.57, -1.59, -0.016, -1.024, 0.176, 18:57:44.639, 1590857864639
17, -1.42, 2.30, 3.52, 3.12, -0.016, -1.024, 0.176, 18:57:44.640, 1590857864640
18, 17.33, 18.83, 15.24, 15.97, -0.016, -1.024, 0.176, 18:57:44.640, 1590857864640
19, 21.15, 29.75, 19.82, 25.30, -0.016, -1.024, 0.176, 18:57:44.654, 1590857864654
20, -11.17, 1.13, -7.98, -4.16, -0.016, -1.024, 0.176, 18:57:44.654, 1590857864654
21, 2.74, 0.86, 6.51, 3.91, -0.016, -1.024, 0.176, 18:57:44.670, 1590857864670
22, 12.38, 14.78, 12.22, 18.95, -0.016, -1.024, 0.176, 18:57:44.670, 1590857864670
23, 17.13, 23.02, 19.26, 22.00, -0.016, -1.024, 0.176, 18:57:44.670, 1590857864670
24, -9.02, -7.68, -3.90, -2.10, -0.016, -1.024, 0.176, 18:57:44.670, 1590857864670
25, -5.14, 3.19, -2.41, 3.08, -0.016, -1.024, 0.176, 18:57:44.684, 1590857864684
26, 13.64, 21.53, 8.57, 14.98, 0.080, -1.024, 0.096, 18:57:44.684, 1590857864684
27, 21.64, 27.47, 21.98, 20.18, 0.080, -1.024, 0.096, 18:57:44.700, 1590857864700
28, -4.29, -0.23, -6.64, -5.41, 0.080, -1.024, 0.096, 18:57:44.700, 1590857864700
29, 1.14, -1.75, 2.05, 1.37, 0.080, -1.024, 0.096, 18:57:44.701, 1590857864701
30, 14.74, 16.61, 13.10, 18.52, 0.080, -1.024, 0.096, 18:57:44.701, 1590857864701
31, 20.88, 23.95, 15.88, 20.70, 0.080, -1.024, 0.096, 18:57:44.730, 1590857864730
32, -6.24, -6.20, -5.40, -3.18, 0.080, -1.024, 0.096, 18:57:44.730, 1590857864730
33, -1.69, 7.62, -0.67, 1.90, 0.080, -1.024, 0.096, 18:57:44.731, 1590857864731
34, 14.88, 16.67, 10.51, 15.89, 0.080, -1.024, 0.096, 18:57:44.731, 1590857864731
35, 22.63, 26.63, 17.12, 24.22, 0.080, -1.024, 0.096, 18:57:44.731, 1590857864731
36, -8.14, -4.82, -5.04, -4.25, 0.080, -1.024, 0.096, 18:57:44.731, 1590857864731
37, -4.28, 5.54, -4.11, 0.14, 0.080, -1.024, 0.096, 18:57:44.744, 1590857864744
38, 18.22, 21.15, 14.54, 13.58, 0.080, -1.024, 0.096, 18:57:44.744, 1590857864744
39, 19.51, 26.98, 19.47, 19.86, 0.080, -1.024, 0.096, 18:57:44.759, 1590857864759
40, -9.96, -0.25, -3.58, 1.81, 0.080, -1.024, 0.096, 18:57:44.759, 1590857864759
41, -3.94, 0.84, -1.28, 2.95, 0.080, -1.024, 0.096, 18:57:44.760, 1590857864760
42, 12.87, 11.69, 15.13, 19.57, 0.080, -1.024, 0.096, 18:57:44.760, 1590857864760
43, 22.64, 23.08, 17.67, 26.58, 0.080, -1.024, 0.096, 18:57:44.774, 1590857864774
44, -12.83, -1.08, -7.89, -5.47, 0.080, -1.024, 0.096, 18:57:44.774, 1590857864774
45, -4.68, 3.59, 2.00, 1.16, 0.080, -1.024, 0.096, 18:57:44.789, 1590857864789
46, 17.29, 14.09, 12.90, 18.61, 0.112, -1.040, 0.112, 18:57:44.789, 1590857864789
47, 20.76, 22.61, 15.40, 21.21, 0.112, -1.040, 0.112, 18:57:44.790, 1590857864790
48, -13.03, -2.76, -6.05, -5.45, 0.112, -1.040, 0.112, 18:57:44.790, 1590857864790
49, -3.82, 2.62, 0.10, 4.51, 0.112, -1.040, 0.112, 18:57:44.804, 1590857864804
50, 12.47, 12.82, 13.27, 13.36, 0.112, -1.040, 0.112, 18:57:44.804, 1590857864804
51, 19.45, 24.49, 18.20, 20.95, 0.112, -1.040, 0.112, 18:57:44.819, 1590857864819
52, -6.91, -4.06, -8.56, -0.30, 0.112, -1.040, 0.112, 18:57:44.819, 1590857864819
53, -2.76, 3.66, -2.49, 1.78, 0.112, -1.040, 0.112, 18:57:44.820, 1590857864820
54, 17.13, 16.15, 13.63, 17.74, 0.112, -1.040, 0.112, 18:57:44.820, 1590857864820
55, 20.86, 22.93, 24.58, 24.81, 0.112, -1.040, 0.112, 18:57:44.834, 1590857864834
56, -14.43, -4.62, -3.86, -1.66, 0.112, -1.040, 0.112, 18:57:44.834, 1590857864834
57, -2.98, 3.72, -1.24, 2.09, 0.112, -1.040, 0.112, 18:57:44.849, 1590857864849
58, 16.09, 20.03, 16.18, 17.84, 0.112, -1.040, 0.112, 18:57:44.849, 1590857864849
59, 23.47, 29.42, 18.65, 25.25, 0.112, -1.040, 0.112, 18:57:44.850, 1590857864850
60, -11.97, -3.73, -7.68, -8.38, 0.112, -1.040, 0.112, 18:57:44.850, 1590857864850
61, 1.60, -1.65, -0.08, -0.68, 0.112, -1.040, 0.112, 18:57:44.864, 1590857864864
62, 14.25, 18.01, 11.41, 19.29, 0.112, -1.040, 0.112, 18:57:44.864, 1590857864864
63, 19.42, 27.08, 21.79, 27.02, 0.112, -1.040, 0.112, 18:57:44.879, 1590857864879
64, -9.42, -1.39, -2.68, -3.35, 0.112, -1.040, 0.112, 18:57:44.879, 1590857864879
65, -2.04, 4.28, -0.53, 2.35, 0.112, -1.040, 0.112, 18:57:44.880, 1590857864880
66, 15.96, 20.40, 15.27, 17.56, 0.048, -1.024, 0.160, 18:57:44.880, 1590857864880
67, 21.76, 24.75, 23.60, 26.04, 0.048, -1.024, 0.160, 18:57:44.910, 1590857864910
68, -10.55, -1.52, -5.81, -2.03, 0.048, -1.024, 0.160, 18:57:44.910, 1590857864910
69, -4.39, 2.77, -1.11, 2.29, 0.048, -1.024, 0.160, 18:57:44.911, 1590857864911
70, 13.81, 18.01, 13.90, 21.62, 0.048, -1.024, 0.160, 18:57:44.911, 1590857864911
71, 22.06, 25.91, 15.95, 24.86, 0.048, -1.024, 0.160, 18:57:44.911, 1590857864911
72, -8.90, -3.52, -8.89, -5.59, 0.048, -1.024, 0.160, 18:57:44.911, 1590857864911
73, -4.63, 1.68, -4.21, -0.33, 0.048, -1.024, 0.160, 18:57:44.924, 1590857864924
74, 15.20, 18.89, 15.24, 18.32, 0.048, -1.024, 0.160, 18:57:44.924, 1590857864924
75, 18.54, 20.90, 20.74, 24.61, 0.048, -1.024, 0.160, 18:57:44.939, 1590857864939
76, -10.11, 1.06, -2.17, -4.60, 0.048, -1.024, 0.160, 18:57:44.939, 1590857864939
77, -5.53, 0.84, -3.52, 1.58, 0.048, -1.024, 0.160, 18:57:44.940, 1590857864940
78, 10.27, 19.92, 14.40, 22.58, 0.048, -1.024, 0.160, 18:57:44.940, 1590857864940
79, 23.57, 23.70, 20.84, 26.25, 0.048, -1.024, 0.160, 18:57:44.954, 1590857864954
80, -6.01, -4.15, -3.13, -10.63, 0.048, -1.024, 0.160, 18:57:44.954, 1590857864954
81, -5.78, -1.60, 3.48, 2.43, 0.048, -1.024, 0.160, 18:57:44.969, 1590857864969
82, 12.40, 20.43, 14.13, 15.66, 0.048, -1.024, 0.160, 18:57:44.969, 1590857864969
83, 20.73, 23.69, 21.17, 20.21, 0.048, -1.024, 0.160, 18:57:44.970, 1590857864970
84, -9.96, -3.80, -8.69, -8.31, 0.048, -1.024, 0.160, 18:57:44.970, 1590857864970
85, -4.74, 3.03, -0.77, 1.00, 0.048, -1.024, 0.160, 18:57:44.984, 1590857864984
86, 10.45, 21.10, 14.52, 19.75, 0.000, -1.008, 0.192, 18:57:44.984, 1590857864984
87, 24.14, 23.64, 19.01, 23.46, 0.000, -1.008, 0.192, 18:57:45.000, 1590857865000
88, -8.13, -4.19, -6.15, -6.67, 0.000, -1.008, 0.192, 18:57:45.000, 1590857865000
89, -0.49, 5.38, -1.12, 2.86, 0.000, -1.008, 0.192, 18:57:45.000, 1590857865000
90, 12.67, 20.02, 12.02, 18.16, 0.000, -1.008, 0.192, 18:57:45.000, 1590857865000
91, 19.48, 25.03, 18.33, 21.96, 0.000, -1.008, 0.192, 18:57:45.014, 1590857865014
92, -9.11, -5.52, -6.14, -5.02, 0.000, -1.008, 0.192, 18:57:45.014, 1590857865014
93, 0.65, 3.76, 2.63, 5.75, 0.000, -1.008, 0.192, 18:57:45.029, 1590857865029
94, 17.54, 20.15, 16.21, 19.66, 0.000, -1.008, 0.192, 18:57:45.029, 1590857865029
95, 20.07, 23.01, 19.26, 23.77, 0.000, -1.008, 0.192, 18:57:45.030, 1590857865030
96, -5.52, 0.90, -7.63, 0.51, 0.000, -1.008, 0.192, 18:57:45.030, 1590857865030
97, -1.12, 1.76, -1.15, 7.76, 0.000, -1.008, 0.192, 18:57:45.044, 1590857865044
98, 10.26, 19.01, 10.75, 17.43, 0.000, -1.008, 0.192, 18:57:45.044, 1590857865044
99, 20.01, 20.84, 13.09, 25.27, 0.000, -1.008, 0.192, 18:57:45.059, 1590857865059
100, -9.21, -2.03, -4.70, -1.89, 0.000, -1.008, 0.192, 18:57:45.059, 1590857865059
101, -0.60, 3.99, -1.72, 1.57, 0.000, -1.008, 0.192, 18:57:45.060, 1590857865060
102, 9.63, 24.22, 11.54, 16.62, 0.000, -1.008, 0.192, 18:57:45.060, 1590857865060
103, 15.15, 21.29, 13.66, 19.76, 0.000, -1.008, 0.192, 18:57:45.074, 1590857865074
104, -7.73, 1.01, -5.97, 0.22, 0.000, -1.008, 0.192, 18:57:45.074, 1590857865074
105, 4.37, 8.81, -2.10, 1.36, 0.000, -1.008, 0.192, 18:57:45.089, 1590857865089
106, 13.86, 18.11, 14.49, 16.98, -0.016, -1.008, 0.208, 18:57:45.089, 1590857865089
107, 21.04, 22.31, 18.48, 21.62, -0.016, -1.008, 0.208, 18:57:45.090, 1590857865090
108, -6.50, -1.88, -7.76, -5.44, -0.016, -1.008, 0.208, 18:57:45.090, 1590857865090
109, 0.34, 3.61, 0.10, -1.65, -0.016, -1.008, 0.208, 18:57:45.104, 1590857865104
110, 11.62, 14.94, 17.05, 13.75, -0.016, -1.008, 0.208, 18:57:45.104, 1590857865104
111, 13.96, 22.02, 19.57, 26.33, -0.016, -1.008, 0.208, 18:57:45.119, 1590857865119
112, -10.70, -1.96, -8.23, -2.43, -0.016, -1.008, 0.208, 18:57:45.119, 1590857865119
113, -5.63, 1.49, -0.01, 2.32, -0.016, -1.008, 0.208, 18:57:45.121, 1590857865121
114, 12.83, 14.77, 13.63, 19.42, -0.016, -1.008, 0.208, 18:57:45.121, 1590857865121
115, 19.07, 22.77, 16.34, 24.17, -0.016, -1.008, 0.208, 18:57:45.134, 1590857865134
116, -13.07, -6.36, -2.72, -7.69, -0.016, -1.008, 0.208, 18:57:45.134, 1590857865134
117, 2.20, 6.00, 1.64, 3.94, -0.016, -1.008, 0.208, 18:57:45.150, 1590857865150
118, 22.16, 17.51, 15.61, 22.30, -0.016, -1.008, 0.208, 18:57:45.150, 1590857865150
119, 19.55, 20.90, 19.42, 21.30, -0.016, -1.008, 0.208, 18:57:45.150, 1590857865150
120, -5.69, 0.19, -5.41, -2.22, -0.016, -1.008, 0.208, 18:57:45.150, 1590857865150
121, 0.95, 0.41, 1.02, 4.07, -0.016, -1.008, 0.208, 18:57:45.164, 1590857865164
122, 13.79, 15.79, 12.04, 17.15, -0.016, -1.008, 0.208, 18:57:45.164, 1590857865164
123, 21.20, 20.27, 22.79, 19.76, -0.016, -1.008, 0.208, 18:57:45.180, 1590857865180
124, -7.01, 0.00, -3.83, -5.07, -0.016, -1.008, 0.208, 18:57:45.180, 1590857865180
125, -0.04, 4.35, -3.47, 3.64, -0.016, -1.008, 0.208, 18:57:45.181, 1590857865181
126, 16.51, 20.31, 19.07, 15.42, -0.016, -1.008, 0.240, 18:57:45.181, 1590857865181
127, 20.03, 21.45, 19.43, 21.13, -0.016, -1.008, 0.240, 18:57:45.194, 1590857865194
128, -7.45, 1.79, -2.88, -6.44, -0.016, -1.008, 0.240, 18:57:45.194, 1590857865194
129, -9.24, 1.65, -4.83, -1.18, -0.016, -1.008, 0.240, 18:57:45.226, 1590857865226
130, 8.55, 18.35, 18.06, 15.68, -0.016, -1.008, 0.240, 18:57:45.226, 1590857865226
131, 16.38, 20.01, 13.64, 21.73, -0.016, -1.008, 0.240, 18:57:45.226, 1590857865226
132, -11.41, 2.61, -6.50, -7.79, -0.016, -1.008, 0.240, 18:57:45.226, 1590857865226
133, 0.89, 3.66, -0.97, 6.91, -0.016, -1.008, 0.240, 18:57:45.227, 1590857865227
134, 19.31, 18.22, 16.86, 18.44, -0.016, -1.008, 0.240, 18:57:45.227, 1590857865227
135, 18.09, 15.95, 20.49, 20.71, -0.016, -1.008, 0.240, 18:57:45.228, 1590857865228
136, -8.14, -0.31, -4.36, -3.83, -0.016, -1.008, 0.240, 18:57:45.228, 1590857865228
137, -6.11, 3.47, -1.35, 3.09, -0.016, -1.008, 0.240, 18:57:45.239, 1590857865239
138, 19.23, 18.14, 22.13, 18.33, -0.016, -1.008, 0.240, 18:57:45.239, 1590857865239
139, 23.18, 20.14, 16.83, 25.97, -0.016, -1.008, 0.240, 18:57:45.254, 1590857865254
140, -10.90, 3.14, -6.36, -2.82, -0.016, -1.008, 0.240, 18:57:45.254, 1590857865254
141, 1.15, 2.95, 5.58, -0.23, -0.016, -1.008, 0.240, 18:57:45.286, 1590857865286
142, 19.66, 18.28, 19.34, 16.69, -0.016, -1.008, 0.240, 18:57:45.286, 1590857865286
143, 22.21, 23.10, 15.72, 24.38, -0.016, -1.008, 0.240, 18:57:45.286, 1590857865286
144, -12.28, 0.23, -8.51, -5.45, -0.016, -1.008, 0.240, 18:57:45.286, 1590857865286
145, -2.65, 0.99, 4.94, 2.06, -0.016, -1.008, 0.240, 18:57:45.287, 1590857865287
146, 13.14, 16.38, 13.13, 16.25, -0.016, -1.008, 0.256, 18:57:45.287, 1590857865287
147, 18.25, 21.45, 20.08, 22.25, -0.016, -1.008, 0.256, 18:57:45.288, 1590857865288
148, -13.99, -0.38, -5.15, -0.44, -0.016, -1.008, 0.256, 18:57:45.288, 1590857865288
149, -4.97, 2.84, 1.27, 3.37, -0.016, -1.008, 0.256, 18:57:45.299, 1590857865299
150, 17.50, 17.94, 12.88, 19.43, -0.016, -1.008, 0.256, 18:57:45.299, 1590857865299
151, 22.21, 21.67, 19.05, 21.84, -0.016, -1.008, 0.256, 18:57:45.314, 1590857865314
152, -7.49, -4.70, -10.56, -4.50, -0.016, -1.008, 0.256, 18:57:45.314, 1590857865314
153, 1.60, 2.88, -3.56, 0.48, -0.016, -1.008, 0.256, 18:57:45.346, 1590857865346
154, 16.63, 19.47, 17.71, 18.25, -0.016, -1.008, 0.256, 18:57:45.346, 1590857865346
155, 22.41, 24.62, 18.85, 23.23, -0.016, -1.008, 0.256, 18:57:45.347, 1590857865347
156, -11.31, -4.69, -3.03, -1.95, -0.016, -1.008, 0.256, 18:57:45.347, 1590857865347
157, -0.22, 3.59, 2.19, 0.30, -0.016, -1.008, 0.256, 18:57:45.348, 1590857865348
158, 17.26, 22.67, 19.88, 13.89, -0.016, -1.008, 0.256, 18:57:45.348, 1590857865348
159, 20.65, 24.26, 19.48, 19.65, -0.016, -1.008, 0.256, 18:57:45.348, 1590857865348
160, -5.54, -0.21, -4.61, -5.57, -0.016, -1.008, 0.256, 18:57:45.348, 1590857865348
161, -6.22, 3.61, -3.34, -3.97, -0.016, -1.008, 0.256, 18:57:45.359, 1590857865359
162, 13.46, 23.53, 21.04, 13.80, -0.016, -1.008, 0.256, 18:57:45.359, 1590857865359
163, 19.01, 23.95, 14.82, 23.22, -0.016, -1.008, 0.256, 18:57:45.374, 1590857865374
164, -10.78, -3.58, -4.42, -5.12, -0.016, -1.008, 0.256, 18:57:45.374, 1590857865374
165, 1.52, 4.74, 7.35, 1.40, -0.016, -1.008, 0.256, 18:57:45.389, 1590857865389
166, 19.55, 19.63, 15.16, 18.93, -0.016, -1.008, 0.256, 18:57:45.389, 1590857865389
167, 20.52, 21.67, 18.32, 27.87, -0.016, -1.008, 0.256, 18:57:45.390, 1590857865390
168, -10.91, 0.30, -6.28, -5.30, -0.016, -1.008, 0.256, 18:57:45.390, 1590857865390
169, -4.70, -0.05, 0.64, 2.72, -0.016, -1.008, 0.256, 18:57:45.404, 1590857865404
170, 13.74, 17.70, 16.58, 16.12, -0.016, -1.008, 0.256, 18:57:45.404, 1590857865404
171, 22.92, 20.37, 15.78, 21.58, -0.016, -1.008, 0.256, 18:57:45.419, 1590857865419
172, -14.75, -2.67, -5.56, -2.17, -0.016, -1.008, 0.256, 18:57:45.419, 1590857865419
173, -4.19, 10.23, -0.65, 6.39, -0.016, -1.008, 0.256, 18:57:45.420, 1590857865420
174, 14.55, 17.00, 14.67, 20.00, -0.016, -1.008, 0.256, 18:57:45.420, 1590857865420
175, 20.01, 21.47, 11.11, 20.70, -0.016, -1.008, 0.256, 18:57:45.434, 1590857865434
176, -5.03, 0.57, -6.56, -4.66, -0.016, -1.008, 0.256, 18:57:45.434, 1590857865434
177, 3.25, 5.69, 1.64, 2.35, -0.016, -1.008, 0.256, 18:57:45.450, 1590857865450
178, 22.04, 17.99, 13.26, 19.51, -0.016, -1.008, 0.256, 18:57:45.450, 1590857865450
179, 17.59, 14.01, 18.84, 19.76, -0.016, -1.008, 0.256, 18:57:45.450, 1590857865450
180, -9.14, 0.99, -3.43, -6.54, -0.016, -1.008, 0.256, 18:57:45.450, 1590857865450
181, -0.95, 6.53, 4.25, 0.77, -0.016, -1.008, 0.256, 18:57:45.464, 1590857865464
182, 17.17, 16.72, 10.86, 16.22, -0.016, -1.008, 0.256, 18:57:45.464, 1590857865464
183, 20.99, 20.92, 16.38, 21.17, -0.016, -1.008, 0.256, 18:57:45.496, 1590857865496
184, -7.83, -0.28, -6.97, -0.40, -0.016, -1.008, 0.256, 18:57:45.496, 1590857865496
185, -4.14, 9.91, -0.14, 4.35, -0.016, -1.008, 0.256, 18:57:45.496, 1590857865496
186, 9.81, 15.29, 14.31, 18.56, -0.016, -1.008, 0.256, 18:57:45.496, 1590857865496
187, 20.03, 22.25, 17.89, 21.22, -0.016, -1.008, 0.256, 18:57:45.497, 1590857865497
188, -9.22, 1.94, -6.48, -2.65, -0.016, -1.008, 0.256, 18:57:45.497, 1590857865497
189, 2.08, 7.51, -3.88, 4.39, -0.016, -1.008, 0.256, 18:57:45.498, 1590857865498
190, 13.00, 23.23, 12.20, 17.42, -0.016, -1.008, 0.256, 18:57:45.498, 1590857865498
191, 17.21, 16.10, 16.38, 17.45, -0.016, -1.008, 0.256, 18:57:45.541, 1590857865541
192, -7.14, 2.44, -2.68, -2.31, -0.016, -1.008, 0.256, 18:57:45.541, 1590857865541
193, -1.89, 3.33, -1.31, 0.87, -0.016, -1.008, 0.256, 18:57:45.541, 1590857865541
194, 14.90, 15.18, 13.59, 16.59, -0.016, -1.008, 0.256, 18:57:45.541, 1590857865541
195, 18.00, 22.19, 15.89, 22.36, -0.016, -1.008, 0.256, 18:57:45.542, 1590857865542
196, -9.30, -5.29, -7.38, -3.78, -0.016, -1.008, 0.256, 18:57:45.542, 1590857865542
197, -6.33, 5.66, -4.02, 1.13, -0.016, -1.008, 0.256, 18:57:45.543, 1590857865543
198, 17.03, 17.83, 15.02, 16.55, -0.016, -1.008, 0.256, 18:57:45.543, 1590857865543
199, 18.82, 19.38, 22.95, 22.70, -0.016, -1.008, 0.256, 18:57:45.555, 1590857865555
200, -13.65, -5.50, -8.97, -7.10, -0.016, -1.008, 0.256, 18:57:45.555, 1590857865555
0, -2.49, 8.77, -0.28, 1.55, -0.016, -1.008, 0.256, 18:57:45.555, 1590857865555
1, 17.39, 21.32, 15.34, 17.13, -0.016, -1.008, 0.256, 18:57:45.569, 1590857865569
2, 19.72, 19.96, 14.33, 16.03, -0.016, -1.008, 0.256, 18:57:45.569, 1590857865569
3, -6.19, 3.97, -8.21, -0.78, -0.016, -1.008, 0.256, 18:57:45.584, 1590857865584
4, -0.33, 1.57, 1.49, 1.68, -0.016, -1.008, 0.256, 18:57:45.584, 1590857865584
5, 15.31, 16.69, 15.46, 14.52, -0.016, -1.008, 0.256, 18:57:45.585, 1590857865585
6, 16.34, 18.25, 17.60, 22.15, -0.016, -1.008, 0.256, 18:57:45.585, 1590857865585
7, -6.01, -1.48, -7.57, -4.12, -0.016, -1.008, 0.256, 18:57:45.599, 1590857865599
8, -1.62, 0.01, 1.28, -1.08, -0.016, -1.008, 0.256, 18:57:45.599, 1590857865599
9, 18.33, 18.65, 15.68, 18.22, -0.016, -1.008, 0.256, 18:57:45.614, 1590857865614
10, 21.80, 23.02, 20.59, 25.64, -0.016, -1.008, 0.256, 18:57:45.614, 1590857865614
11, -8.29, -0.24, -4.78, -3.63, -0.016, -1.008, 0.256, 18:57:45.615, 1590857865615
12, -2.83, 9.36, 0.06, 3.03, -0.016, -1.008, 0.256, 18:57:45.615, 1590857865615
13, 13.57, 20.42, 13.91, 20.46, -0.016, -1.008, 0.256, 18:57:45.629, 1590857865629
14, 17.44, 19.21, 17.66, 23.18, -0.016, -1.008, 0.256, 18:57:45.629, 1590857865629
15, -7.40, -0.59, -4.81, -0.53, -0.016, -1.008, 0.256, 18:57:45.644, 1590857865644
16, -4.29, 2.89, -2.71, 4.13, -0.016, -1.008, 0.256, 18:57:45.644, 1590857865644
17, 18.25, 17.62, 14.79, 21.97, -0.016, -1.008, 0.256, 18:57:45.645, 1590857865645
18, 18.49, 19.84, 15.08, 16.93, -0.016, -1.008, 0.256, 18:57:45.645, 1590857865645
19, -9.91, -1.14, -5.61, -4.14, -0.016, -1.008, 0.256, 18:57:45.659, 1590857865659
20, -2.66, 4.78, -3.31, 5.54, -0.016, -1.008, 0.256, 18:57:45.659, 1590857865659
21, 14.65, 19.18, 17.19, 17.07, -0.016, -1.008, 0.256, 18:57:45.675, 1590857865675
22, 18.59, 25.89, 18.60, 18.74, -0.016, -1.008, 0.256, 18:57:45.675, 1590857865675
23, -10.92, -3.45, -1.84, -5.07, -0.016, -1.008, 0.256, 18:57:45.675, 1590857865675
24, 0.23, 6.26, -0.96, 4.74, -0.016, -1.008, 0.256, 18:57:45.675, 1590857865675
25, 16.91, 20.07, 18.00, 17.39, -0.016, -1.008, 0.256, 18:57:45.689, 1590857865689
26, 20.33, 27.22, 18.41, 17.57, -0.016, -1.008, 0.256, 18:57:45.689, 1590857865689
27, -2.52, 2.49, -6.87, -1.35, -0.016, -1.008, 0.256, 18:57:45.705, 1590857865705
28, -1.68, 3.65, 4.19, 4.40, -0.016, -1.008, 0.256, 18:57:45.705, 1590857865705
29, 11.71, 18.71, 17.06, 18.73, -0.016, -1.008, 0.256, 18:57:45.706, 1590857865706
30, 15.19, 22.57, 20.58, 20.82, -0.016, -1.008, 0.256, 18:57:45.706, 1590857865706
31, -6.23, 1.42, -6.36, -5.52, -0.016, -1.008, 0.256, 18:57:45.735, 1590857865735
32, 2.93, 4.67, -1.52, -3.23, -0.016, -1.008, 0.256, 18:57:45.735, 1590857865735
33, 19.55, 16.98, 15.60, 18.48, -0.016, -1.008, 0.256, 18:57:45.736, 1590857865736
34, 23.52, 18.63, 21.06, 23.19, -0.016, -1.008, 0.256, 18:57:45.736, 1590857865736
35, -8.38, -2.13, -4.56, -5.11, -0.016, -1.008, 0.256, 18:57:45.736, 1590857865736
36, -3.44, 1.79, -0.54, 1.32, -0.016, -1.008, 0.256, 18:57:45.736, 1590857865736
37, 13.00, 14.04, 15.54, 17.78, -0.016, -1.008, 0.256, 18:57:45.749, 1590857865749
38, 23.43, 27.81, 24.38, 26.77, -0.016, -1.008, 0.256, 18:57:45.749, 1590857865749
39, -8.66, -2.78, -9.45, -4.29, -0.016, -1.008, 0.256, 18:57:45.764, 1590857865764
40, -8.55, 2.86, 2.47, 3.04, -0.016, -1.008, 0.256, 18:57:45.764, 1590857865764
41, 11.55, 21.05, 16.53, 19.12, -0.016, -1.008, 0.256, 18:57:45.765, 1590857865765
42, 18.08, 20.00, 17.95, 21.38, -0.016, -1.008, 0.256, 18:57:45.765, 1590857865765
43, -4.62, -5.95, -6.73, -4.31, -0.016, -1.008, 0.256, 18:57:45.779, 1590857865779
44, -3.38, 5.45, -5.06, 4.78, -0.016, -1.008, 0.256, 18:57:45.779, 1590857865779
45, 19.19, 18.76, 21.46, 22.17, -0.016, -1.008, 0.256, 18:57:45.794, 1590857865794
46, 18.73, 26.08, 19.69, 20.07, -0.016, -1.008, 0.256, 18:57:45.794, 1590857865794
47, -10.21, -3.99, -8.15, -5.40, -0.016, -1.008, 0.256, 18:57:45.795, 1590857865795
48, -1.70, 0.10, -0.40, -2.27, -0.016, -1.008, 0.256, 18:57:45.795, 1590857865795
49, 15.00, 17.25, 13.51, 22.30, -0.016, -1.008, 0.256, 18:57:45.809, 1590857865809
50, 20.66, 17.04, 17.35, 19.22, -0.016, -1.008, 0.256, 18:57:45.809, 1590857865809
51, -11.39, -0.40, -3.12, -5.60, -0.016, -1.008, 0.256, 18:57:45.841, 1590857865841
52, -4.72, 3.77, -2.72, 4.10, -0.016, -1.008, 0.256, 18:57:45.841, 1590857865841
53, 11.18, 21.76, 15.66, 18.43, -0.016, -1.008, 0.256, 18:57:45.842, 1590857865842
54, 18.86, 21.99, 16.09, 24.56, -0.016, -1.008, 0.256, 18:57:45.842, 1590857865842
55, -6.71, 3.58, -5.85, 0.42, -0.016, -1.008, 0.256, 18:57:45.843, 1590857865843
56, 2.11, 3.47, 0.19, 3.16, -0.016, -1.008, 0.256, 18:57:45.843, 1590857865843
57, 16.52, 19.69, 21.17, 22.26, -0.016, -1.008, 0.256, 18:57:45.844, 1590857865844
58, 14.25, 20.61, 16.70, 29.96, -0.016, -1.008, 0.256, 18:57:45.844, 1590857865844
59, -14.11, -4.45, -7.32, -3.42, -0.016, -1.008, 0.256, 18:57:45.854, 1590857865854
60, -0.90, 3.24, 2.15, 3.11, -0.016, -1.008, 0.256, 18:57:45.854, 1590857865854
61, 17.40, 19.54, 15.97, 19.24, -0.016, -1.008, 0.256, 18:57:45.901, 1590857865901
62, 16.13, 22.43, 14.37, 19.65, -0.016, -1.008, 0.256, 18:57:45.901, 1590857865901
63, -9.28, -4.52, -5.39, -6.97, -0.016, -1.008, 0.256, 18:57:45.902, 1590857865902
64, 1.70, 7.56, 1.81, 6.58, -0.016, -1.008, 0.256, 18:57:45.902, 1590857865902
65, 17.17, 20.44, 14.19, 21.71, -0.016, -1.008, 0.256, 18:57:45.903, 1590857865903
66, 17.99, 17.91, 13.82, 20.63, -0.016, -1.008, 0.256, 18:57:45.903, 1590857865903
67, -9.66, 3.03, -2.72, -2.23, -0.016, -1.008, 0.256, 18:57:45.904, 1590857865904
68, 1.73, 7.87, -4.58, 2.80, -0.016, -1.008, 0.256, 18:57:45.904, 1590857865904
69, 15.27, 17.77, 14.94, 20.21, -0.016, -1.008, 0.256, 18:57:45.930, 1590857865930
70, 17.62, 17.70, 11.38, 20.05, -0.016, -1.008, 0.256, 18:57:45.930, 1590857865930
71, -6.76, -3.10, -0.22, -8.96, -0.016, -1.008, 0.256, 18:57:45.931, 1590857865931
72, 1.11, 0.62, 4.09, -2.76, -0.016, -1.008, 0.256, 18:57:45.931, 1590857865931
73, 12.94, 17.49, 15.01, 20.78, -0.016, -1.008, 0.256, 18:57:45.945, 1590857865945
74, 16.86, 20.99, 14.42, 20.13, -0.016, -1.008, 0.256, 18:57:45.945, 1590857865945
75, -6.38, -1.27, -7.06, -3.52, -0.016, -1.008, 0.256, 18:57:45.946, 1590857865946
76, -3.14, 8.42, 0.35, 1.67, -0.016, -1.008, 0.256, 18:57:45.946, 1590857865946
77, 13.88, 20.15, 14.15, 16.29, -0.016, -1.008, 0.256, 18:57:45.946, 1590857865946
78, 17.98, 18.55, 24.30, 22.85, -0.016, -1.008, 0.256, 18:57:45.946, 1590857865946
79, -6.42, 1.56, -2.61, -1.34, -0.016, -1.008, 0.256, 18:57:45.959, 1590857865959
80, 1.02, 7.17, 3.27, 4.14, -0.016, -1.008, 0.256, 18:57:45.959, 1590857865959
81, 12.87, 18.64, 14.30, 18.90, -0.016, -1.008, 0.256, 18:57:45.991, 1590857865991
82, 21.55, 25.24, 13.80, 23.46, -0.016, -1.008, 0.256, 18:57:45.991, 1590857865991
83, -10.66, -7.12, -4.09, -1.98, -0.016, -1.008, 0.256, 18:57:45.992, 1590857865992
84, 0.03, -0.71, 4.16, -1.88, -0.016, -1.008, 0.256, 18:57:45.992, 1590857865992
85, 18.93, 17.07, 14.97, 20.07, -0.016, -1.008, 0.256, 18:57:45.993, 1590857865993
86, 20.17, 20.79, 13.81, 21.63, -0.016, -1.008, 0.256, 18:57:45.993, 1590857865993
87, -8.62, -2.75, -8.69, -3.63, -0.016, -1.008, 0.256, 18:57:45.993, 1590857865993
88, -1.86, 6.71, 0.08, 2.63, -0.016, -1.008, 0.256, 18:57:45.993, 1590857865993
89, 17.48, 21.59, 17.58, 18.29, -0.016, -1.008, 0.256, 18:57:46.004, 1590857866004
90, 17.98, 23.22, 14.48, 19.09, -0.016, -1.008, 0.256, 18:57:46.004, 1590857866004
91, -9.36, -4.30, -4.69, -2.54, -0.016, -1.008, 0.256, 18:57:46.019, 1590857866019
92, 0.53, 3.43, 2.02, 6.21, -0.016, -1.008, 0.256, 18:57:46.019, 1590857866019
93, 13.93, 19.23, 19.37, 20.40, -0.016, -1.008, 0.256, 18:57:46.066, 1590857866066
94, 18.28, 18.82, 17.19, 21.96, -0.016, -1.008, 0.256, 18:57:46.066, 1590857866066
95, -6.85, -0.35, -5.76, -4.24, -0.016, -1.008, 0.256, 18:57:46.067, 1590857866067
96, -1.22, 1.79, -1.57, 5.56, -0.016, -1.008, 0.256, 18:57:46.067, 1590857866067
97, 16.53, 21.08, 15.51, 13.95, -0.016, -1.008, 0.256, 18:57:46.068, 1590857866068
98, 16.45, 22.78, 23.19, 18.40, -0.016, -1.008, 0.256, 18:57:46.068, 1590857866068
99, -9.00, 1.57, -8.10, -3.89, -0.016, -1.008, 0.256, 18:57:46.068, 1590857866068
100, -0.35, 7.28, 3.06, 6.56, -0.016, -1.008, 0.256, 18:57:46.068, 1590857866068
101, 13.97, 26.12, 16.91, 18.68, -0.016, -1.008, 0.256, 18:57:46.079, 1590857866079
102, 17.36, 19.11, 17.76, 22.95, -0.016, -1.008, 0.256, 18:57:46.079, 1590857866079
103, -10.13, -0.89, -5.28, 0.66, -0.016, -1.008, 0.256, 18:57:46.080, 1590857866080
104, -3.17, 8.87, 1.72, 4.18, -0.016, -1.008, 0.256, 18:57:46.080, 1590857866080
105, 15.97, 18.85, 14.27, 15.67, -0.016, -1.008, 0.256, 18:57:46.094, 1590857866094
106, 17.79, 26.02, 14.86, 23.62, -0.032, -1.008, 0.272, 18:57:46.094, 1590857866094
107, -12.49, -0.58, -4.97, -5.22, -0.032, -1.008, 0.272, 18:57:46.095, 1590857866095
108, -0.75, 6.37, 4.84, -0.68, -0.032, -1.008, 0.272, 18:57:46.095, 1590857866095
109, 17.59, 22.10, 16.53, 22.39, -0.032, -1.008, 0.272, 18:57:46.109, 1590857866109
110, 20.19, 20.20, 15.55, 16.92, -0.032, -1.008, 0.272, 18:57:46.109, 1590857866109
111, -9.99, -0.54, -8.33, -4.93, -0.032, -1.008, 0.272, 18:57:46.125, 1590857866125
112, -0.39, 4.36, 4.14, 2.09, -0.032, -1.008, 0.272, 18:57:46.125, 1590857866125
113, 15.85, 14.61, 15.52, 14.75, -0.032, -1.008, 0.272, 18:57:46.125, 1590857866125
114, 16.60, 15.05, 17.82, 14.59, -0.032, -1.008, 0.272, 18:57:46.125, 1590857866125
115, -6.70, -0.11, -3.69, -2.05, -0.032, -1.008, 0.272, 18:57:46.139, 1590857866139
116, -0.43, 1.58, -0.53, 3.33, -0.032, -1.008, 0.272, 18:57:46.139, 1590857866139
117, 15.09, 18.51, 14.83, 21.54, -0.032, -1.008, 0.272, 18:57:46.154, 1590857866154
118, 18.88, 21.83, 18.13, 16.77, -0.032, -1.008, 0.272, 18:57:46.154, 1590857866154
119, -8.45, -0.99, -3.60, -2.89, -0.032, -1.008, 0.272, 18:57:46.155, 1590857866155
120, 1.50, 5.41, -0.59, 5.58, -0.032, -1.008, 0.272, 18:57:46.155, 1590857866155
121, 14.12, 19.28, 19.01, 18.34, -0.032, -1.008, 0.272, 18:57:46.169, 1590857866169
122, 13.49, 17.53, 9.33, 18.95, -0.032, -1.008, 0.272, 18:57:46.169, 1590857866169
123, -6.31, -5.67, -3.34, -3.54, -0.032, -1.008, 0.272, 18:57:46.184, 1590857866184
124, -3.81, 6.38, 3.11, 0.63, -0.032, -1.008, 0.272, 18:57:46.184, 1590857866184
125, 17.41, 21.88, 17.32, 19.43, -0.032, -1.008, 0.272, 18:57:46.185, 1590857866185
126, 18.55, 18.23, 13.52, 24.23, -0.016, -1.008, 0.272, 18:57:46.185, 1590857866185
127, -5.74, 1.56, -8.09, -3.71, -0.016, -1.008, 0.272, 18:57:46.199, 1590857866199
128, -2.56, 3.21, -4.09, 0.30, -0.016, -1.008, 0.272, 18:57:46.199, 1590857866199
129, 14.02, 19.46, 14.38, 21.06, -0.016, -1.008, 0.272, 18:57:46.231, 1590857866231
130, 19.05, 23.25, 16.20, 20.98, -0.016, -1.008, 0.272, 18:57:46.231, 1590857866231
131, -4.53, -1.62, -5.51, -2.33, -0.016, -1.008, 0.272, 18:57:46.231, 1590857866231
132, -2.10, 5.33, -1.23, 0.03, -0.016, -1.008, 0.272, 18:57:46.231, 1590857866231
133, 18.69, 18.16, 14.12, 21.10, -0.016, -1.008, 0.272, 18:57:46.232, 1590857866232
134, 15.90, 22.82, 15.28, 20.96, -0.016, -1.008, 0.272, 18:57:46.232, 1590857866232
135, -3.96, -1.40, -5.14, -3.94, -0.016, -1.008, 0.272, 18:57:46.233, 1590857866233
136, 1.70, 1.69, 0.41, 5.44, -0.016, -1.008, 0.272, 18:57:46.233, 1590857866233
137, 15.84, 19.17, 17.73, 16.56, -0.016, -1.008, 0.272, 18:57:46.244, 1590857866244
138, 19.49, 15.65, 16.39, 24.05, -0.016, -1.008, 0.272, 18:57:46.244, 1590857866244
139, -8.53, -1.58, -3.24, -0.17, -0.016, -1.008, 0.272, 18:57:46.259, 1590857866259
140, 1.58, 3.11, 3.40, 2.91, -0.016, -1.008, 0.272, 18:57:46.259, 1590857866259
141, 16.91, 19.56, 16.34, 13.63, -0.016, -1.008, 0.272, 18:57:46.274, 1590857866274
142, 17.14, 20.95, 18.71, 21.04, -0.016, -1.008, 0.272, 18:57:46.274, 1590857866274
143, -10.88, -3.24, -0.61, -2.42, -0.016, -1.008, 0.272, 18:57:46.275, 1590857866275
144, -0.99, 4.40, 0.85, 0.77, -0.016, -1.008, 0.272, 18:57:46.275, 1590857866275
145, 19.93, 19.62, 18.93, 18.87, -0.016, -1.008, 0.272, 18:57:46.289, 1590857866289
146, 16.15, 23.41, 16.16, 16.66, -0.032, -1.008, 0.272, 18:57:46.289, 1590857866289
147, -8.00, -1.02, -5.69, -1.59, -0.032, -1.008, 0.272, 18:57:46.304, 1590857866304
148, -2.80, 8.27, -1.44, 0.91, -0.032, -1.008, 0.272, 18:57:46.304, 1590857866304
149, 17.82, 21.34, 11.14, 22.23, -0.032, -1.008, 0.272, 18:57:46.319, 1590857866319
150, 19.31, 23.80, 11.56, 19.23, -0.032, -1.008, 0.272, 18:57:46.319, 1590857866319
151, -6.50, -0.23, -3.37, -5.22, -0.032, -1.008, 0.272, 18:57:46.320, 1590857866320
152, -0.97, 3.91, 2.60, 3.48, -0.032, -1.008, 0.272, 18:57:46.320, 1590857866320
153, 15.28, 19.47, 13.62, 20.37, -0.032, -1.008, 0.272, 18:57:46.335, 1590857866335
154, 15.55, 23.72, 15.38, 17.67, -0.032, -1.008, 0.272, 18:57:46.335, 1590857866335
155, -12.32, -0.53, -7.62, -4.38, -0.032, -1.008, 0.272, 18:57:46.335, 1590857866335
156, -4.15, 7.07, 1.06, 1.31, -0.032, -1.008, 0.272, 18:57:46.335, 1590857866335
157, 17.55, 17.24, 15.02, 15.13, -0.032, -1.008, 0.272, 18:57:46.379, 1590857866379
158, 16.33, 19.59, 10.37, 19.46, -0.032, -1.008, 0.272, 18:57:46.379, 1590857866379
159, -10.38, 0.04, -4.37, -4.58, -0.032, -1.008, 0.272, 18:57:46.396, 1590857866396
160, -0.31, 6.92, 2.54, 4.24, -0.032, -1.008, 0.272, 18:57:46.396, 1590857866396
161, 19.13, 20.24, 18.57, 22.20, -0.032, -1.008, 0.272, 18:57:46.397, 1590857866397
162, 13.80, 22.13, 16.81, 19.85, -0.032, -1.008, 0.272, 18:57:46.397, 1590857866397
163, -6.71, 3.02, -5.90, -7.99, -0.032, -1.008, 0.272, 18:57:46.398, 1590857866398
164, -3.24, -1.45, -0.37, -0.13, -0.032, -1.008, 0.272, 18:57:46.398, 1590857866398
165, 15.09, 19.35, 15.35, 18.80, -0.032, -1.008, 0.272, 18:57:46.399, 1590857866399
166, 18.75, 22.33, 16.31, 17.75, -0.016, -1.008, 0.256, 18:57:46.399, 1590857866399
167, -4.24, 1.24, -7.88, -4.62, -0.016, -1.008, 0.256, 18:57:46.410, 1590857866410
168, 0.73, 1.13, 4.48, 0.50, -0.016, -1.008, 0.256, 18:57:46.410, 1590857866410
169, 19.17, 24.31, 20.00, 21.70, -0.016, -1.008, 0.256, 18:57:46.410, 1590857866410
170, 16.06, 18.15, 20.35, 19.90, -0.016, -1.008, 0.256, 18:57:46.410, 1590857866410
171, -11.20, -1.19, -5.41, -3.88, -0.016, -1.008, 0.256, 18:57:46.424, 1590857866424
172, -3.51, 6.18, 0.94, 1.07, -0.016, -1.008, 0.256, 18:57:46.424, 1590857866424
173, 11.57, 19.20, 12.34, 19.95, -0.016, -1.008, 0.256, 18:57:46.425, 1590857866425
174, 16.40, 21.14, 17.94, 20.99, -0.016, -1.008, 0.256, 18:57:46.425, 1590857866425
175, -7.83, -1.69, -4.28, -3.44, -0.016, -1.008, 0.256, 18:57:46.439, 1590857866439
176, -3.15, 2.60, -0.30, -0.11, -0.016, -1.008, 0.256, 18:57:46.439, 1590857866439
177, 18.44, 17.62, 18.49, 25.84, -0.016, -1.008, 0.256, 18:57:46.455, 1590857866455
178, 21.84, 23.55, 13.74, 19.11, -0.016, -1.008, 0.256, 18:57:46.455, 1590857866455
179, -8.74, 2.63, -6.68, -4.55, -0.016, -1.008, 0.256, 18:57:46.455, 1590857866455
180, -0.35, 4.49, -5.34, 3.05, -0.016, -1.008, 0.256, 18:57:46.455, 1590857866455
181, 12.95, 22.10, 20.29, 24.66, -0.016, -1.008, 0.256, 18:57:46.469, 1590857866469
182, 16.96, 20.83, 13.29, 19.12, -0.016, -1.008, 0.256, 18:57:46.469, 1590857866469
183, -3.80, 1.05, -8.28, -1.99, -0.016, -1.008, 0.256, 18:57:46.484, 1590857866484
184, -4.59, 6.88, 2.67, 3.77, -0.016, -1.008, 0.256, 18:57:46.484, 1590857866484
185, 15.19, 18.52, 13.42, 20.65, -0.016, -1.008, 0.256, 18:57:46.485, 1590857866485
186, 14.88, 19.55, 14.55, 20.74, -0.016, -1.008, 0.256, 18:57:46.485, 1590857866485
187, -13.36, 0.29, -9.93, -7.08, -0.016, -1.008, 0.256, 18:57:46.499, 1590857866499
188, -3.81, 4.41, -0.67, 5.15, -0.016, -1.008, 0.256, 18:57:46.499, 1590857866499
189, 19.28, 20.11, 15.75, 23.90, -0.016, -1.008, 0.256, 18:57:46.514, 1590857866514
190, 13.13, 21.79, 16.80, 19.02, -0.016, -1.008, 0.256, 18:57:46.514, 1590857866514
191, -10.22, -1.38, -8.30, -3.20, -0.016, -1.008, 0.256, 18:57:46.515, 1590857866515
192, -0.04, 1.73, -0.58, 5.05, -0.016, -1.008, 0.256, 18:57:46.515, 1590857866515
193, 18.54, 21.52, 15.92, 18.67, -0.016, -1.008, 0.256, 18:57:46.545, 1590857866545
194, 14.18, 17.82, 18.58, 19.02, -0.016, -1.008, 0.256, 18:57:46.545, 1590857866545
195, -7.23, -0.55, -4.49, -3.14, -0.016, -1.008, 0.256, 18:57:46.546, 1590857866546
196, 3.90, 2.06, 3.14, 1.14, -0.016, -1.008, 0.256, 18:57:46.546, 1590857866546
197, 18.52, 23.64, 14.15, 19.07, -0.016, -1.008, 0.256, 18:57:46.546, 1590857866546
198, 18.25, 13.14, 13.38, 19.01, -0.016, -1.008, 0.256, 18:57:46.546, 1590857866546
199, -5.96, -1.25, -5.01, -5.34, -0.016, -1.008, 0.256, 18:57:46.559, 1590857866559
200, -3.91, 6.12, 3.47, 4.36, -0.016, -1.008, 0.256, 18:57:46.559, 1590857866559
0, 21.05, 18.88, 16.21, 23.11, -0.016, -1.008, 0.256, 18:57:46.560, 1590857866560
1, 15.91, 26.04, 16.44, 19.67, -0.016, -1.008, 0.256, 18:57:46.574, 1590857866574
2, -9.42, -2.14, -12.81, -2.02, -0.016, -1.008, 0.256, 18:57:46.574, 1590857866574
3, 0.21, 7.79, -3.09, 4.72, -0.016, -1.008, 0.256, 18:57:46.590, 1590857866590
4, 19.44, 17.69, 18.47, 17.63, -0.016, -1.008, 0.256, 18:57:46.590, 1590857866590
5, 17.54, 16.29, 17.66, 17.13, -0.016, -1.008, 0.256, 18:57:46.590, 1590857866590
6, -4.85, -2.61, -4.43, -3.65, -0.016, -0.992, 0.272, 18:57:46.590, 1590857866590
7, 3.83, 5.67, 3.92, 5.71, -0.016, -0.992, 0.272, 18:57:46.604, 1590857866604
8, 14.73, 21.24, 17.04, 20.53, -0.016, -0.992, 0.272, 18:57:46.604, 1590857866604
9, 16.25, 22.06, 19.21, 21.26, -0.016, -0.992, 0.272, 18:57:46.620, 1590857866620
10, -4.99, -0.54, -6.73, -2.00, -0.016, -0.992, 0.272, 18:57:46.620, 1590857866620
11, -3.41, 5.39, -1.08, 3.48, -0.016, -0.992, 0.272, 18:57:46.621, 1590857866621
12, 18.75, 17.16, 16.12, 19.23, -0.016, -0.992, 0.272, 18:57:46.621, 1590857866621
13, 20.43, 20.95, 17.47, 23.32, -0.016, -0.992, 0.272, 18:57:46.634, 1590857866634
14, -10.06, -4.44, -9.99, -8.85, -0.016, -0.992, 0.272, 18:57:46.634, 1590857866634
15, -1.32, 4.11, 1.40, 1.84, -0.016, -0.992, 0.272, 18:57:46.650, 1590857866650
16, 20.91, 21.47, 18.29, 21.19, -0.016, -0.992, 0.272, 18:57:46.650, 1590857866650
17, 17.07, 21.06, 16.12, 22.53, -0.016, -0.992, 0.272, 18:57:46.650, 1590857866650
18, -9.46, -5.28, -6.93, -3.39, -0.016, -0.992, 0.272, 18:57:46.650, 1590857866650
19, -4.83, 4.31, 2.83, 1.46, -0.016, -0.992, 0.272, 18:57:46.679, 1590857866679
20, 19.98, 21.16, 18.81, 19.51, -0.016, -0.992, 0.272, 18:57:46.679, 1590857866679
21, 19.68, 22.10, 16.01, 22.23, -0.016, -0.992, 0.272, 18:57:46.696, 1590857866696
22, -8.77, -2.35, -10.10, -1.06, -0.016, -0.992, 0.272, 18:57:46.696, 1590857866696
23, 1.81, 6.22, 1.70, 4.34, -0.016, -0.992, 0.272, 18:57:46.696, 1590857866696
24, 18.73, 19.37, 18.95, 19.05, -0.016, -0.992, 0.272, 18:57:46.696, 1590857866696
25, 13.87, 20.32, 17.73, 21.69, -0.016, -0.992, 0.272, 18:57:46.697, 1590857866697
26, -7.95, -0.10, -5.97, -6.75, -0.016, -0.992, 0.272, 18:57:46.697, 1590857866697
27, -6.20, -0.65, 2.58, 5.92, -0.016, -0.992, 0.272, 18:57:46.698, 1590857866698
28, 16.96, 15.91, 18.89, 21.84, -0.016, -0.992, 0.272, 18:57:46.698, 1590857866698
29, 18.45, 19.74, 17.69, 19.11, -0.016, -0.992, 0.272, 18:57:46.709, 1590857866709
30, -10.22, -0.33, 1.18, -2.47, -0.016, -0.992, 0.272, 18:57:46.709, 1590857866709
31, -3.49, 2.15, 1.45, 2.15, -0.016, -0.992, 0.272, 18:57:46.724, 1590857866724
32, 21.71, 17.85, 19.31, 21.69, -0.016, -0.992, 0.272, 18:57:46.724, 1590857866724
33, 16.15, 21.18, 15.28, 20.48, -0.016, -0.992, 0.272, 18:57:46.740, 1590857866740
34, -8.19, -1.98, -3.50, -3.68, -0.016, -0.992, 0.272, 18:57:46.740, 1590857866740
35, -5.51, 1.94, -3.15, 0.62, -0.016, -0.992, 0.272, 18:57:46.740, 1590857866740
36, 18.89, 19.87, 16.00, 16.72, -0.016, -0.992, 0.272, 18:57:46.740, 1590857866740
37, 12.95, 20.82, 15.37, 22.65, -0.016, -0.992, 0.272, 18:57:46.770, 1590857866770
38, -11.74, 0.42, -6.77, -3.82, -0.016, -0.992, 0.272, 18:57:46.770, 1590857866770
39, -2.54, 3.80, 1.60, 2.87, -0.016, -0.992, 0.272, 18:57:46.771, 1590857866771
40, 16.74, 21.05, 19.32, 21.65, -0.016, -0.992, 0.272, 18:57:46.771, 1590857866771
41, 12.38, 16.25, 19.84, 22.87, -0.016, -0.992, 0.272, 18:57:46.772, 1590857866772
42, -8.86, -2.12, -2.63, -1.90, -0.016, -0.992, 0.272, 18:57:46.772, 1590857866772
43, 3.02, 6.37, 0.42, 1.84, -0.016, -0.992, 0.272, 18:57:46.800, 1590857866800
44, 19.22, 24.72, 14.15, 26.33, -0.016, -0.992, 0.272, 18:57:46.800, 1590857866800
45, 19.71, 17.48, 13.10, 20.06, -0.016, -0.992, 0.272, 18:57:46.801, 1590857866801
46, -7.81, -3.54, -5.84, -2.47, -0.016, -1.008, 0.272, 18:57:46.801, 1590857866801
47, 0.93, 4.08, -2.14, 0.72, -0.016, -1.008, 0.272, 18:57:46.801, 1590857866801
48, 17.17, 19.07, 13.82, 20.20, -0.016, -1.008, 0.272, 18:57:46.801, 1590857866801
49, 18.59, 15.45, 19.19, 16.62, -0.016, -1.008, 0.272, 18:57:46.814, 1590857866814
50, -4.20, -1.04, -2.52, -1.76, -0.016, -1.008, 0.272, 18:57:46.814, 1590857866814
51, -3.33, 4.44, -2.10, -0.48, -0.016, -1.008, 0.272, 18:57:46.829, 1590857866829
52, 15.23, 21.37, 12.73, 18.64, -0.016, -1.008, 0.272, 18:57:46.829, 1590857866829
53, 13.75, 16.07, 9.02, 19.07, -0.016, -1.008, 0.272, 18:57:46.844, 1590857866844
54, -9.45, -5.34, -4.95, -1.88, -0.016, -1.008, 0.272, 18:57:46.844, 1590857866844
55, -1.21, 4.00, 2.89, 1.47, -0.016, -1.008, 0.272, 18:57:46.845, 1590857866845
56, 15.76, 22.25, 19.23, 19.07, -0.016, -1.008, 0.272, 18:57:46.845, 1590857866845
57, 15.57, 21.34, 15.80, 17.62, -0.016, -1.008, 0.272, 18:57:46.859, 1590857866859
58, -10.04, -0.56, -6.48, -3.65, -0.016, -1.008, 0.272, 18:57:46.859, 1590857866859
59, -4.38, -0.51, -0.78, 1.55, -0.016, -1.008, 0.272, 18:57:46.860, 1590857866860
60, 20.29, 20.80, 19.63, 17.86, -0.016, -1.008, 0.272, 18:57:46.860, 1590857866860
61, 16.20, 19.50, 16.28, 20.07, -0.016, -1.008, 0.272, 18:57:46.874, 1590857866874
62, -9.07, -2.20, -6.27, -2.85, -0.016, -1.008, 0.272, 18:57:46.874, 1590857866874
63, 2.96, 4.70, 3.54, 0.24, -0.016, -1.008, 0.272, 18:57:46.890, 1590857866890
64, 18.26, 21.19, 19.66, 22.60, -0.016, -1.008, 0.272, 18:57:46.890, 1590857866890
65, 14.98, 21.30, 16.59, 19.09, -0.016, -1.008, 0.272, 18:57:46.921, 1590857866921
66, -6.23, -2.16, -4.46, -3.48, -0.016, -1.008, 0.272, 18:57:46.921, 1590857866921
67, -6.29, 5.09, -0.70, -0.60, -0.016, -1.008, 0.272, 18:57:46.922, 1590857866922
68, 16.69, 19.02, 17.50, 21.68, -0.016, -1.008, 0.272, 18:57:46.922, 1590857866922
69, 17.22, 20.80, 20.70, 22.65, -0.016, -1.008, 0.272, 18:57:46.922, 1590857866922
70, -6.26, -2.07, -6.85, -1.54, -0.016, -1.008, 0.272, 18:57:46.922, 1590857866922
71, -2.23, 4.36, -0.40, 1.51, -0.016, -1.008, 0.272, 18:57:46.923, 1590857866923
72, 16.13, 18.07, 15.26, 20.04, -0.016, -1.008, 0.272, 18:57:46.923, 1590857866923
73, 14.28, 24.98, 11.20, 20.51, -0.016, -1.008, 0.272, 18:57:46.950, 1590857866950
74, -3.24, -4.88, -5.26, -12.15, -0.016, -1.008, 0.272, 18:57:46.950, 1590857866950
75, -1.34, 0.55, -1.34, 5.35, -0.016, -1.008, 0.272, 18:57:46.951, 1590857866951
76, 17.01, 19.59, 18.06, 19.65, -0.016, -1.008, 0.272, 18:57:46.951, 1590857866951
77, 17.24, 18.57, 13.11, 14.31, -0.016, -1.008, 0.272, 18:57:46.951, 1590857866951
78, -8.20, 0.16, -2.28, -7.43, -0.016, -1.008, 0.272, 18:57:46.951, 1590857866951
79, 3.09, 5.89, 0.38, 3.17, -0.016, -1.008, 0.272, 18:57:46.964, 1590857866964
80, 18.76, 21.57, 15.86, 18.65, -0.016, -1.008, 0.272, 18:57:46.964, 1590857866964
81, 14.83, 17.18, 12.79, 16.06, -0.016, -1.008, 0.272, 18:57:46.979, 1590857866979
82, -12.21, -0.07, -2.93, -6.11, -0.016, -1.008, 0.272, 18:57:46.979, 1590857866979
83, -0.77, 4.87, 2.22, 0.90, -0.016, -1.008, 0.272, 18:57:46.980, 1590857866980
84, 19.98, 24.75, 19.55, 21.04, -0.016, -1.008, 0.272, 18:57:46.980, 1590857866980
85, 14.53, 24.07, 14.89, 21.69, -0.016, -1.008, 0.272, 18:57:47.010, 1590857867010
86, -16.10, -4.23, -4.72, -3.20, -0.016, -1.008, 0.288, 18:57:47.010, 1590857867010
87, -1.28, 0.67, 2.18, 2.51, -0.016, -1.008, 0.288, 18:57:47.011, 1590857867011
88, 20.17, 17.63, 18.50, 22.26, -0.016, -1.008, 0.288, 18:57:47.011, 1590857867011
89, 15.96, 16.26, 20.22, 15.07, -0.016, -1.008, 0.288, 18:57:47.012, 1590857867012
90, -6.30, -0.05, -11.59, -3.24, -0.016, -1.008, 0.288, 18:57:47.012, 1590857867012
91, 0.25, 5.79, 2.26, 8.12, -0.016, -1.008, 0.288, 18:57:47.040, 1590857867040
92, 17.83, 24.22, 17.91, 23.21, -0.016, -1.008, 0.288, 18:57:47.040, 1590857867040
93, 13.82, 17.70, 15.36, 16.74, -0.016, -1.008, 0.288, 18:57:47.055, 1590857867055
94, -12.59, 1.68, -4.97, -4.16, -0.016, -1.008, 0.288, 18:57:47.055, 1590857867055
95, -3.80, 2.67, 1.55, 4.91, -0.016, -1.008, 0.288, 18:57:47.056, 1590857867056
96, 16.97, 18.61, 12.72, 19.47, -0.016, -1.008, 0.288, 18:57:47.056, 1590857867056
97, 16.15, 16.05, 26.12, 18.51, -0.016, -1.008, 0.288, 18:57:47.086, 1590857867086
98, -13.16, -4.24, -6.76, -4.02, -0.016, -1.008, 0.288, 18:57:47.086, 1590857867086
99, -5.64, 4.53, -3.59, 6.75, -0.016, -1.008, 0.288, 18:57:47.087, 1590857867087
100, 14.12, 23.30, 16.85, 23.31, -0.016, -1.008, 0.288, 18:57:47.087, 1590857867087
101, 15.22, 21.15, 24.65, 18.97, -0.016, -1.008, 0.288, 18:57:47.088, 1590857867088
102, -10.71, -2.07, -2.77, 1.83, -0.016, -1.008, 0.288, 18:57:47.088, 1590857867088
103, 0.80, 6.79, 1.92, 4.68, -0.016, -1.008, 0.288, 18:57:47.089, 1590857867089
104, 21.15, 24.85, 18.88, 23.00, -0.016, -1.008, 0.288, 18:57:47.089, 1590857867089
105, 15.66, 18.69, 15.33, 18.63, -0.016, -1.008, 0.288, 18:57:47.099, 1590857867099
106, -5.05, 0.73, -8.29, -4.78, -0.016, -1.008, 0.272, 18:57:47.099, 1590857867099
107, -3.07, 4.26, 4.01, 0.45, -0.016, -1.008, 0.272, 18:57:47.100, 1590857867100
108, 14.79, 20.50, 15.42, 16.61, -0.016, -1.008, 0.272, 18:57:47.100, 1590857867100
109, 18.53, 22.55, 14.97, 19.91, -0.016, -1.008, 0.272, 18:57:47.114, 1590857867114
110, -10.47, -1.97, -5.89, -7.90, -0.016, -1.008, 0.272, 18:57:47.114, 1590857867114
111, -3.37, 5.27, 2.06, 2.11, -0.016, -1.008, 0.272, 18:57:47.130, 1590857867130
112, 18.97, 18.67, 19.70, 20.49, -0.016, -1.008, 0.272, 18:57:47.130, 1590857867130
113, 14.85, 23.53, 17.27, 17.63, -0.016, -1.008, 0.272, 18:57:47.131, 1590857867131
114, -3.97, -0.37, -6.23, -6.78, -0.016, -1.008, 0.272, 18:57:47.131, 1590857867131
115, -1.14, 4.72, -2.07, 3.39, -0.016, -1.008, 0.272, 18:57:47.160, 1590857867160
116, 13.88, 21.16, 10.55, 18.44, -0.016, -1.008, 0.272, 18:57:47.160, 1590857867160
117, 12.62, 15.25, 16.52, 19.53, -0.016, -1.008, 0.272, 18:57:47.161, 1590857867161
118, -7.19, -0.63, -2.83, -5.54, -0.016, -1.008, 0.272, 18:57:47.161, 1590857867161
119, -1.66, 5.49, 4.19, -0.08, -0.016, -1.008, 0.272, 18:57:47.161, 1590857867161
120, 21.78, 19.55, 16.79, 19.48, -0.016, -1.008, 0.272, 18:57:47.161, 1590857867161
121, 17.33, 20.23, 16.75, 23.77, -0.016, -1.008, 0.272, 18:57:47.174, 1590857867174
122, -3.87, -0.09, -4.36, -1.96, -0.016, -1.008, 0.272, 18:57:47.174, 1590857867174
123, -3.98, 3.78, -6.42, -0.40, -0.016, -1.008, 0.272, 18:57:47.189, 1590857867189
124, 20.93, 20.21, 16.08, 18.83, -0.016, -1.008, 0.272, 18:57:47.189, 1590857867189
125, 14.40, 18.44, 13.73, 12.35, -0.016, -1.008, 0.272, 18:57:47.190, 1590857867190
126, -8.98, 1.53, -7.91, -3.48, -0.016, -1.008, 0.288, 18:57:47.190, 1590857867190
127, -1.51, 3.40, -0.07, 5.45, -0.016, -1.008, 0.288, 18:57:47.204, 1590857867204
128, 19.45, 15.43, 14.28, 20.17, -0.016, -1.008, 0.288, 18:57:47.204, 1590857867204
129, 12.40, 15.46, 10.99, 17.15, -0.016, -1.008, 0.288, 18:57:47.219, 1590857867219
130, -9.47, 3.79, -4.24, -3.51, -0.016, -1.008, 0.288, 18:57:47.219, 1590857867219
131, -4.43, 10.11, 3.26, 5.16, -0.016, -1.008, 0.288, 18:57:47.220, 1590857867220
132, 21.86, 22.15, 15.34, 22.30, -0.016, -1.008, 0.288, 18:57:47.220, 1590857867220
133, 19.77, 13.46, 7.41, 18.57, -0.016, -1.008, 0.288, 18:57:47.234, 1590857867234
134, -11.16, -6.33, -7.21, -3.90, -0.016, -1.008, 0.288, 18:57:47.234, 1590857867234
135, -1.67, -1.35, -2.60, 3.23, -0.016, -1.008, 0.288, 18:57:47.250, 1590857867250
136, 23.76, 20.30, 16.96, 24.31, -0.016, -1.008, 0.288, 18:57:47.250, 1590857867250
137, 10.85, 17.09, 15.92, 18.19, -0.016, -1.008, 0.288, 18:57:47.251, 1590857867251
138, -11.70, -3.22, -1.55, -4.68, -0.016, -1.008, 0.288, 18:57:47.251, 1590857867251
139, -0.02, 6.99, 6.14, 1.95, -0.016, -1.008, 0.288, 18:57:47.264, 1590857867264
140, 14.50, 16.32, 17.96, 20.75, -0.016, -1.008, 0.288, 18:57:47.264, 1590857867264
141, 13.59, 20.95, 11.94, 18.62, -0.016, -1.008, 0.288, 18:57:47.280, 1590857867280
142, -5.70, 2.48, -2.09, -0.32, -0.016, -1.008, 0.288, 18:57:47.280, 1590857867280
143, -3.86, 2.78, 0.67, 4.50, -0.016, -1.008, 0.288, 18:57:47.280, 1590857867280
144, 18.49, 23.87, 17.49, 18.49, -0.016, -1.008, 0.288, 18:57:47.280, 1590857867280
145, 18.75, 16.03, 19.34, 21.93, -0.016, -1.008, 0.288, 18:57:47.294, 1590857867294
146, -11.21, -2.99, -1.52, -5.78, -0.016, -1.008, 0.288, 18:57:47.294, 1590857867294
147, -0.71, 6.83, 2.57, 2.00, -0.016, -1.008, 0.288, 18:57:47.309, 1590857867309
148, 24.85, 25.60, 14.78, 21.30, -0.016, -1.008, 0.288, 18:57:47.309, 1590857867309
149, 16.09, 16.97, 16.62, 21.26, -0.016, -1.008, 0.288, 18:57:47.310, 1590857867310
150, -8.69, 1.94, -7.66, -4.63, -0.016, -1.008, 0.288, 18:57:47.310, 1590857867310
151, -2.98, 5.74, -0.67, 5.76, -0.016, -1.008, 0.288, 18:57:47.341, 1590857867341
152, 15.53, 18.59, 14.95, 19.00, -0.016, -1.008, 0.288, 18:57:47.341, 1590857867341
153, 15.77, 18.67, 14.29, 17.86, -0.016, -1.008, 0.288, 18:57:47.342, 1590857867342
154, -8.09, -2.98, -4.46, -5.06, -0.016, -1.008, 0.288, 18:57:47.342, 1590857867342
155, 4.37, 0.77, 0.24, 3.65, -0.016, -1.008, 0.288, 18:57:47.342, 1590857867342
156, 24.41, 20.99, 23.51, 18.29, -0.016, -1.008, 0.288, 18:57:47.342, 1590857867342
157, 20.03, 22.92, 16.47, 20.99, -0.016, -1.008, 0.288, 18:57:47.370, 1590857867370
158, -10.66, -4.70, -9.47, -5.39, -0.016, -1.008, 0.288, 18:57:47.370, 1590857867370
159, -3.43, 3.70, 5.24, 2.50, -0.016, -1.008, 0.288, 18:57:47.371, 1590857867371
160, 19.75, 17.92, 22.95, 19.89, -0.016, -1.008, 0.288, 18:57:47.371, 1590857867371
161, 13.13, 23.66, 17.26, 20.26, -0.016, -1.008, 0.288, 18:57:47.371, 1590857867371
162, -7.55, -0.06, -6.65, -5.02, -0.016, -1.008, 0.288, 18:57:47.371, 1590857867371
163, -0.61, 5.29, -1.98, -0.58, -0.016, -1.008, 0.288, 18:57:47.384, 1590857867384
164, 18.27, 24.17, 21.75, 24.42, -0.016, -1.008, 0.288, 18:57:47.384, 1590857867384
165, 16.55, 14.52, 10.30, 17.67, -0.016, -1.008, 0.288, 18:57:47.399, 1590857867399
166, -6.84, -4.18, -8.25, -8.03, -0.016, -1.008, 0.272, 18:57:47.399, 1590857867399
167, -3.27, 4.29, 1.00, -0.17, -0.016, -1.008, 0.272, 18:57:47.400, 1590857867400
168, 19.45, 22.71, 20.68, 22.35, -0.016, -1.008, 0.272, 18:57:47.400, 1590857867400
169, 16.34, 23.86, 13.27, 17.83, -0.016, -1.008, 0.272, 18:57:47.414, 1590857867414
170, -11.00, -0.24, -5.33, -6.58, -0.016, -1.008, 0.272, 18:57:47.414, 1590857867414
171, 0.70, 1.11, 0.94, 3.94, -0.016, -1.008, 0.272, 18:57:47.429, 1590857867429
172, 22.03, 21.30, 20.43, 23.21, -0.016, -1.008, 0.272, 18:57:47.429, 1590857867429
173, 15.46, 15.26, 16.37, 16.59, -0.016, -1.008, 0.272, 18:57:47.430, 1590857867430
174, -8.38, -6.74, -2.95, -6.28, -0.016, -1.008, 0.272, 18:57:47.430, 1590857867430
175, -2.01, 3.32, 1.92, 2.78, -0.016, -1.008, 0.272, 18:57:47.461, 1590857867461
176, 19.17, 18.91, 18.81, 19.11, -0.016, -1.008, 0.272, 18:57:47.461, 1590857867461
177, 16.36, 13.58, 18.23, 18.05, -0.016, -1.008, 0.272, 18:57:47.462, 1590857867462
178, -8.03, 4.22, -4.59, -0.86, -0.016, -1.008, 0.272, 18:57:47.462, 1590857867462
179, -2.30, 2.45, 2.16, 3.38, -0.016, -1.008, 0.272, 18:57:47.474, 1590857867474
180, 16.81, 23.94, 20.18, 25.06, -0.016, -1.008, 0.272, 18:57:47.474, 1590857867474
181, 11.24, 17.42, 11.13, 18.64, -0.016, -1.008, 0.272, 18:57:47.475, 1590857867475
182, -7.52, 0.72, -7.51, -3.47, -0.016, -1.008, 0.272, 18:57:47.475, 1590857867475
183, -3.48, -1.78, 2.08, 1.41, -0.016, -1.008, 0.272, 18:57:47.489, 1590857867489
184, 24.63, 19.01, 19.91, 22.49, -0.016, -1.008, 0.272, 18:57:47.489, 1590857867489
185, 19.13, 20.67, 15.42, 19.98, -0.016, -1.008, 0.272, 18:57:47.505, 1590857867505
186, -1.95, -4.88, -3.96, -4.20, -0.016, -1.008, 0.288, 18:57:47.505, 1590857867505
187, -1.31, 5.98, -1.67, 2.16, -0.016, -1.008, 0.288, 18:57:47.505, 1590857867505
188, 16.84, 21.11, 18.33, 18.74, -0.016, -1.008, 0.288, 18:57:47.505, 1590857867505
189, 16.59, 24.93, 16.80, 21.46, -0.016, -1.008, 0.288, 18:57:47.519, 1590857867519
190, -6.48, -3.06, -4.61, -4.92, -0.016, -1.008, 0.288, 18:57:47.519, 1590857867519
191, -7.44, 1.21, 0.83, 2.13, -0.016, -1.008, 0.288, 18:57:47.520, 1590857867520
192, 22.64, 21.80, 16.84, 21.71, -0.016, -1.008, 0.288, 18:57:47.520, 1590857867520
193, 13.99, 20.47, 13.56, 20.12, -0.016, -1.008, 0.288, 18:57:47.534, 1590857867534
194, -14.51, -2.11, -6.97, -8.45, -0.016, -1.008, 0.288, 18:57:47.534, 1590857867534
195, -2.26, 1.92, -1.92, 4.88, -0.016, -1.008, 0.288, 18:57:47.549, 1590857867549
196, 23.31, 21.63, 16.61, 22.81, -0.016, -1.008, 0.288, 18:57:47.549, 1590857867549
197, 19.53, 19.02, 16.98, 19.84, -0.016, -1.008, 0.288, 18:57:47.550, 1590857867550
198, -8.22, -2.29, -6.55, -6.40, -0.016, -1.008, 0.288, 18:57:47.550, 1590857867550
199, 3.76, 3.05, -0.26, 6.10, -0.016, -1.008, 0.288, 18:57:47.581, 1590857867581
200, 17.44, 22.64, 13.85, 22.30, -0.016, -1.008, 0.288, 18:57:47.581, 1590857867581
0, 12.69, 20.51, 15.66, 17.65, -0.016, -1.008, 0.288, 18:57:47.581, 1590857867581
1, -9.99, -7.60, -6.70, -6.46, -0.016, -1.008, 0.288, 18:57:47.582, 1590857867582
2, 0.88, 4.79, 3.17, -0.96, -0.016, -1.008, 0.288, 18:57:47.582, 1590857867582
3, 26.78, 19.38, 19.77, 24.49, -0.016, -1.008, 0.288, 18:57:47.583, 1590857867583
4, 16.47, 23.81, 14.15, 20.40, -0.016, -1.008, 0.288, 18:57:47.583, 1590857867583
5, -8.00, -2.28, -9.21, -6.62, -0.016, -1.008, 0.288, 18:57:47.594, 1590857867594
6, 5.98, 8.10, 0.23, 5.37, -0.016, -1.008, 0.272, 18:57:47.594, 1590857867594
7, 23.70, 24.52, 14.59, 23.33, -0.016, -1.008, 0.272, 18:57:47.625, 1590857867625
8, 16.22, 17.94, 8.84, 18.79, -0.016, -1.008, 0.272, 18:57:47.625, 1590857867625
9, -7.60, -1.34, -6.67, -4.09, -0.016, -1.008, 0.272, 18:57:47.626, 1590857867626
10, 1.32, 4.69, 4.66, 1.13, -0.016, -1.008, 0.272, 18:57:47.626, 1590857867626
11, 20.72, 21.60, 13.29, 19.51, -0.016, -1.008, 0.272, 18:57:47.626, 1590857867626
12, 16.65, 17.19, 11.62, 21.35, -0.016, -1.008, 0.272, 18:57:47.626, 1590857867626
13, -5.99, 1.83, -6.44, -3.47, -0.016, -1.008, 0.272, 18:57:47.656, 1590857867656
14, 1.65, 8.22, 2.14, 4.46, -0.016, -1.008, 0.272, 18:57:47.656, 1590857867656
15, 17.26, 22.38, 12.18, 20.69, -0.016, -1.008, 0.272, 18:57:47.656, 1590857867656
16, 12.48, 19.93, 19.07, 17.51, -0.016, -1.008, 0.272, 18:57:47.656, 1590857867656
17, -12.81, -0.03, -4.33, -6.05, -0.016, -1.008, 0.272, 18:57:47.656, 1590857867656
18, 3.16, 4.23, 1.26, 0.58, -0.016, -1.008, 0.272, 18:57:47.656, 1590857867656
19, 24.02, 22.09, 22.03, 21.85, -0.016, -1.008, 0.272, 18:57:47.669, 1590857867669
20, 11.01, 18.97, 17.93, 18.42, -0.016, -1.008, 0.272, 18:57:47.669, 1590857867669
21, -10.00, -4.00, -5.73, -3.75, -0.016, -1.008, 0.272, 18:57:47.684, 1590857867684
22, -1.31, 6.75, 6.13, 2.11, -0.016, -1.008, 0.272, 18:57:47.684, 1590857867684
23, 22.02, 23.65, 21.54, 21.75, -0.016, -1.008, 0.272, 18:57:47.685, 1590857867685
24, 15.61, 21.01, 11.62, 21.62, -0.016, -1.008, 0.272, 18:57:47.685, 1590857867685
25, -5.03, 0.39, -8.43, -1.19, -0.016, -1.008, 0.272, 18:57:47.715, 1590857867715
26, 2.14, 3.01, 0.93, 3.42, -0.016, -1.008, 0.272, 18:57:47.715, 1590857867715
27, 15.92, 21.72, 21.36, 25.27, -0.016, -1.008, 0.272, 18:57:47.716, 1590857867716
28, 9.82, 15.42, 16.33, 17.54, -0.016, -1.008, 0.272, 18:57:47.716, 1590857867716
29, -10.70, -4.94, -3.71, -0.91, -0.016, -1.008, 0.272, 18:57:47.717, 1590857867717
30, -0.12, 3.09, 2.71, 4.69, -0.016, -1.008, 0.272, 18:57:47.717, 1590857867717
31, 23.37, 18.76, 17.85, 20.93, -0.016, -1.008, 0.272, 18:57:47.729, 1590857867729
32, 11.17, 14.28, 17.95, 20.14, -0.016, -1.008, 0.272, 18:57:47.729, 1590857867729
33, -12.22, -2.87, -5.92, -6.81, -0.016, -1.008, 0.272, 18:57:47.744, 1590857867744
34, -0.76, 8.32, 1.86, 6.47, -0.016, -1.008, 0.272, 18:57:47.744, 1590857867744
35, 16.38, 20.25, 18.47, 24.26, -0.016, -1.008, 0.272, 18:57:47.745, 1590857867745
36, 12.86, 15.27, 18.82, 20.19, -0.016, -1.008, 0.272, 18:57:47.745, 1590857867745
37, -5.68, -0.74, -5.32, -4.82, -0.016, -1.008, 0.272, 18:57:47.759, 1590857867759
38, 1.81, 2.59, -1.34, -0.17, -0.016, -1.008, 0.272, 18:57:47.759, 1590857867759
39, 22.08, 22.91, 21.70, 23.03, -0.016, -1.008, 0.272, 18:57:47.774, 1590857867774
40, 15.29, 17.24, 14.48, 15.66, -0.016, -1.008, 0.272, 18:57:47.774, 1590857867774
41, -5.14, -3.74, -6.10, -7.05, -0.016, -1.008, 0.272, 18:57:47.775, 1590857867775
42, -1.46, 7.75, 0.82, 5.07, -0.016, -1.008, 0.272, 18:57:47.775, 1590857867775
