%OpenBCI Raw EEG Data
%Number of channels = 4
%Sample Rate = 200.0 Hz
%First Column = SampleIndex
%Last Column = Timestamp 
%Other Columns = EEG data in microvolts followed by Accel Data (in G) interleaved with Aux Data
0, 3.46, 10.39, 4.39, 7.43, 0.048, -0.016, -1.056, 18:40:53.494, 1590856853494
1, 5.71, 9.91, 7.30, 9.83, 0.048, -0.016, -1.056, 18:40:53.508, 1590856853508
2, 4.90, 8.12, 10.25, 9.43, 0.048, -0.016, -1.056, 18:40:53.508, 1590856853508
3, 6.40, 17.36, 7.71, 12.65, 0.048, -0.016, -1.056, 18:40:53.523, 1590856853523
4, 6.36, 15.49, 4.26, 18.49, 0.048, -0.016, -1.056, 18:40:53.523, 1590856853523
5, 8.77, 10.55, 6.06, 9.26, 0.048, -0.016, -1.056, 18:40:53.524, 1590856853524
6, 4.02, 9.69, 3.16, 8.77, 0.048, -0.016, -1.056, 18:40:53.524, 1590856853524
7, 4.21, 11.00, 10.12, 15.82, 0.048, -0.016, -1.056, 18:40:53.538, 1590856853538
8, 6.00, 10.39, 6.51, 12.90, 0.048, -0.016, -1.056, 18:40:53.538, 1590856853538
9, 9.09, 11.14, 6.81, 12.31, 0.048, -0.016, -1.056, 18:40:53.553, 1590856853553
10, 4.83, 8.63, 7.75, 13.98, 0.048, -0.016, -1.056, 18:40:53.553, 1590856853553
11, 8.82, 6.62, 7.87, 12.29, 0.048, -0.016, -1.056, 18:40:53.568, 1590856853568
12, 9.20, 17.04, 9.44, 15.29, 0.048, -0.016, -1.056, 18:40:53.568, 1590856853568
13, 8.98, 11.89, 9.49, 8.29, 0.048, -0.016, -1.056, 18:40:53.569, 1590856853569
14, 6.24, 5.57, 4.82, 7.66, 0.048, -0.016, -1.056, 18:40:53.569, 1590856853569
15, 7.23, 10.82, 4.62, 5.39, 0.048, -0.016, -1.056, 18:40:53.599, 1590856853599
16, 7.67, 13.40, 6.41, 15.89, 0.048, -0.016, -1.056, 18:40:53.599, 1590856853599
17, 3.53, 5.47, 7.78, 13.54, 0.048, -0.016, -1.056, 18:40:53.631, 1590856853631
18, 3.94, 10.46, 6.02, 6.64, 0.048, -0.016, -1.056, 18:40:53.631, 1590856853631
19, 4.77, 14.03, 7.04, 6.40, 0.048, -0.016, -1.056, 18:40:53.632, 1590856853632
20, 8.07, 12.93, 8.28, 11.77, 0.048, -0.016, -1.056, 18:40:53.632, 1590856853632
21, 3.68, 6.93, 10.22, 14.51, 0.048, -0.016, -1.056, 18:40:53.632, 1590856853632
22, 4.04, 12.90, 10.32, 13.78, 0.048, -0.016, -1.056, 18:40:53.632, 1590856853632
23, 3.50, 10.37, 5.76, 11.20, 0.048, -0.016, -1.056, 18:40:53.632, 1590856853632
24, 7.36, 10.20, 10.31, 12.79, 0.048, -0.016, -1.056, 18:40:53.632, 1590856853632
25, 7.90, 9.76, 4.04, 12.16, 0.048, -0.016, -1.056, 18:40:53.644, 1590856853644
26, 4.37, 11.85, 4.43, 6.90, 0.000, -0.016, -0.528, 18:40:53.644, 1590856853644
27, 3.12, 9.95, 5.48, 6.42, 0.000, -0.016, -0.528, 18:40:53.644, 1590856853644
28, 3.74, 9.96, 9.05, 12.96, 0.000, -0.016, -0.528, 18:40:53.644, 1590856853644
29, 10.52, 15.64, 5.97, 12.38, 0.000, -0.016, -0.528, 18:40:53.645, 1590856853645
30, 1.97, 11.08, 7.01, 6.63, 0.000, -0.016, -0.528, 18:40:53.645, 1590856853645
31, 6.51, 9.91, 5.21, 8.72, 0.000, -0.016, -0.528, 18:40:53.658, 1590856853658
32, 3.98, 12.98, 9.91, 15.75, 0.000, -0.016, -0.528, 18:40:53.658, 1590856853658
33, 1.84, 16.64, 12.11, 12.18, 0.000, -0.016, -0.528, 18:40:53.673, 1590856853673
34, 1.45, 9.81, 8.15, 5.13, 0.000, -0.016, -0.528, 18:40:53.673, 1590856853673
35, 5.79, 10.75, 9.28, 9.92, 0.000, -0.016, -0.528, 18:40:53.674, 1590856853674
36, 8.86, 11.99, 5.65, 12.18, 0.000, -0.016, -0.528, 18:40:53.674, 1590856853674
37, 8.86, 10.64, 5.15, 13.65, 0.000, -0.016, -0.528, 18:40:53.687, 1590856853687
38, 6.26, 9.66, 4.34, 8.65, 0.000, -0.016, -0.528, 18:40:53.687, 1590856853687
39, 8.89, 10.95, 7.08, 7.90, 0.000, -0.016, -0.528, 18:40:53.703, 1590856853703
40, 7.92, 14.25, 8.33, 6.25, 0.000, -0.016, -0.528, 18:40:53.703, 1590856853703
41, 7.23, 11.03, 8.20, 10.97, 0.000, -0.016, -0.528, 18:40:53.704, 1590856853704
42, 7.66, 9.33, 4.60, 6.61, 0.000, -0.016, -0.528, 18:40:53.704, 1590856853704
43, 5.27, 9.90, 8.84, 11.00, 0.000, -0.016, -0.528, 18:40:53.718, 1590856853718
44, 7.52, 10.29, 6.25, 14.71, 0.000, -0.016, -0.528, 18:40:53.718, 1590856853718
45, 2.94, 12.27, 10.71, 10.26, 0.000, -0.016, -0.528, 18:40:53.749, 1590856853749
46, 4.19, 9.17, 9.24, 7.17, 0.000, -0.016, -0.784, 18:40:53.749, 1590856853749
47, 4.69, 8.25, 9.04, 10.84, 0.000, -0.016, -0.784, 18:40:53.750, 1590856853750
48, 8.66, 8.83, 9.27, 11.37, 0.000, -0.016, -0.784, 18:40:53.750, 1590856853750
49, 7.07, 10.94, 9.04, 8.48, 0.000, -0.016, -0.784, 18:40:53.750, 1590856853750
50, 1.33, 10.61, 7.16, 8.31, 0.000, -0.016, -0.784, 18:40:53.750, 1590856853750
51, 4.53, 7.52, 5.64, 5.37, 0.000, -0.016, -0.784, 18:40:53.763, 1590856853763
52, 8.03, 10.72, 10.09, 10.71, 0.000, -0.016, -0.784, 18:40:53.763, 1590856853763
53, 12.70, 19.11, 9.21, 14.10, 0.000, -0.016, -0.784, 18:40:53.764, 1590856853764
54, 2.54, 14.32, 5.09, 9.16, 0.000, -0.016, -0.784, 18:40:53.764, 1590856853764
55, 3.69, 9.52, 8.00, 4.07, 0.000, -0.016, -0.784, 18:40:53.778, 1590856853778
56, 6.36, 14.07, 4.85, 8.87, 0.000, -0.016, -0.784, 18:40:53.778, 1590856853778
57, 7.99, 14.09, 7.63, 14.51, 0.000, -0.016, -0.784, 18:40:53.810, 1590856853810
58, 4.36, 9.38, 5.39, 7.22, 0.000, -0.016, -0.784, 18:40:53.810, 1590856853810
59, 3.03, 10.04, 8.38, 6.25, 0.000, -0.016, -0.784, 18:40:53.810, 1590856853810
60, 5.89, 11.87, 5.91, 9.40, 0.000, -0.016, -0.784, 18:40:53.810, 1590856853810
61, 7.20, 11.41, 5.66, 9.04, 0.000, -0.016, -0.784, 18:40:53.811, 1590856853811
62, 2.02, 8.54, 5.27, 9.95, 0.000, -0.016, -0.784, 18:40:53.811, 1590856853811
63, 7.60, 12.14, 7.82, 12.64, 0.000, -0.016, -0.784, 18:40:53.812, 1590856853812
64, 8.79, 11.52, 10.62, 17.28, 0.000, -0.016, -0.784, 18:40:53.812, 1590856853812
65, 6.73, 10.83, 7.84, 9.50, 0.000, -0.016, -0.784, 18:40:53.838, 1590856853838
66, 7.58, 13.67, 6.64, 9.19, 0.016, -0.016, -0.928, 18:40:53.838, 1590856853838
67, 5.32, 9.14, 6.65, 6.47, 0.016, -0.016, -0.928, 18:40:53.839, 1590856853839
68, 6.06, 11.61, 9.53, 14.02, 0.016, -0.016, -0.928, 18:40:53.839, 1590856853839
69, 1.80, 11.34, 4.59, 17.01, 0.016, -0.016, -0.928, 18:40:53.853, 1590856853853
70, 2.71, 8.64, 2.88, 6.17, 0.016, -0.016, -0.928, 18:40:53.853, 1590856853853
71, 2.23, 10.87, 6.90, 9.32, 0.016, -0.016, -0.928, 18:40:53.854, 1590856853854
72, 7.00, 11.37, 10.04, 9.84, 0.016, -0.016, -0.928, 18:40:53.854, 1590856853854
73, 8.16, 13.92, 9.95, 11.35, 0.016, -0.016, -0.928, 18:40:53.867, 1590856853867
74, 3.02, 9.01, 2.34, 5.06, 0.016, -0.016, -0.928, 18:40:53.867, 1590856853867
75, 7.96, 10.09, 5.17, 7.34, 0.016, -0.016, -0.928, 18:40:53.883, 1590856853883
76, 12.32, 7.65, 5.31, 13.23, 0.016, -0.016, -0.928, 18:40:53.883, 1590856853883
77, 13.34, 12.66, 7.91, 13.80, 0.016, -0.016, -0.928, 18:40:53.884, 1590856853884
78, 3.37, 7.17, 6.73, 7.87, 0.016, -0.016, -0.928, 18:40:53.884, 1590856853884
79, 5.40, 14.39, 8.42, 8.42, 0.016, -0.016, -0.928, 18:40:53.898, 1590856853898
80, 6.77, 9.46, 5.81, 12.85, 0.016, -0.016, -0.928, 18:40:53.898, 1590856853898
81, 8.85, 11.87, 10.37, 13.33, 0.016, -0.016, -0.928, 18:40:53.913, 1590856853913
82, 5.99, 12.80, 9.14, 3.96, 0.016, -0.016, -0.928, 18:40:53.913, 1590856853913
83, 3.95, 12.68, 1.33, 9.62, 0.016, -0.016, -0.928, 18:40:53.914, 1590856853914
84, 10.03, 13.96, 4.23, 6.59, 0.016, -0.016, -0.928, 18:40:53.914, 1590856853914
85, 8.06, 8.91, 9.97, 10.86, 0.016, -0.016, -0.928, 18:40:53.928, 1590856853928
86, 1.68, 13.23, 4.79, 5.52, 0.016, -0.016, -0.992, 18:40:53.928, 1590856853928
87, 3.24, 11.90, 6.88, 6.90, 0.016, -0.016, -0.992, 18:40:53.944, 1590856853944
88, 6.91, 9.28, 10.38, 8.09, 0.016, -0.016, -0.992, 18:40:53.944, 1590856853944
89, 8.87, 15.34, 5.98, 12.61, 0.016, -0.016, -0.992, 18:40:53.945, 1590856853945
90, 3.89, 6.46, 4.76, 6.07, 0.016, -0.016, -0.992, 18:40:53.945, 1590856853945
91, 6.11, 11.76, 6.61, 9.66, 0.016, -0.016, -0.992, 18:40:53.957, 1590856853957
92, 5.29, 11.30, 2.83, 7.73, 0.016, -0.016, -0.992, 18:40:53.957, 1590856853957
93, 10.83, 13.58, 8.51, 11.76, 0.016, -0.016, -0.992, 18:40:53.973, 1590856853973
94, 5.68, 15.59, 5.62, 8.31, 0.016, -0.016, -0.992, 18:40:53.973, 1590856853973
95, 4.84, 12.89, 3.65, 7.28, 0.016, -0.016, -0.992, 18:40:53.974, 1590856853974
96, 3.93, 10.51, 7.82, 10.69, 0.016, -0.016, -0.992, 18:40:53.974, 1590856853974
97, 4.14, 9.89, 4.21, 11.43, 0.016, -0.016, -0.992, 18:40:53.987, 1590856853987
98, 4.31, 5.84, 6.84, 8.42, 0.016, -0.016, -0.992, 18:40:53.987, 1590856853987
99, 7.84, 7.76, 4.38, 8.06, 0.016, -0.016, -0.992, 18:40:54.003, 1590856854003
100, 7.91, 7.53, 8.44, 12.08, 0.016, -0.016, -0.992, 18:40:54.003, 1590856854003
101, 7.89, 11.62, 3.40, 8.81, 0.016, -0.016, -0.992, 18:40:54.018, 1590856854018
102, 1.96, 10.31, 4.35, 10.55, 0.016, -0.016, -0.992, 18:40:54.018, 1590856854018
103, 4.44, 11.05, 10.29, 15.71, 0.016, -0.016, -0.992, 18:40:54.019, 1590856854019
104, 5.54, 10.22, 3.97, 10.61, 0.016, -0.016, -0.992, 18:40:54.019, 1590856854019
105, 7.21, 12.10, 10.88, 13.11, 0.016, -0.016, -0.992, 18:40:54.033, 1590856854033
106, 5.87, 8.74, 6.31, 8.97, 0.016, -0.016, -1.024, 18:40:54.033, 1590856854033
107, 4.90, 11.53, 6.28, 6.45, 0.016, -0.016, -1.024, 18:40:54.034, 1590856854034
108, 9.07, 12.27, 8.92, 12.04, 0.016, -0.016, -1.024, 18:40:54.034, 1590856854034
109, 5.03, 8.82, 5.75, 10.23, 0.016, -0.016, -1.024, 18:40:54.048, 1590856854048
110, 3.05, 14.35, 1.25, 9.83, 0.016, -0.016, -1.024, 18:40:54.048, 1590856854048
111, 6.64, 13.46, 3.77, 12.21, 0.016, -0.016, -1.024, 18:40:54.064, 1590856854064
112, 8.84, 9.89, 6.04, 9.36, 0.016, -0.016, -1.024, 18:40:54.064, 1590856854064
113, 6.26, 13.30, 7.61, 9.94, 0.016, -0.016, -1.024, 18:40:54.065, 1590856854065
114, 4.35, 9.55, 6.69, 9.22, 0.016, -0.016, -1.024, 18:40:54.065, 1590856854065
115, 4.44, 11.97, 6.29, 6.65, 0.016, -0.016, -1.024, 18:40:54.077, 1590856854077
116, 5.42, 12.49, 8.22, 9.17, 0.016, -0.016, -1.024, 18:40:54.077, 1590856854077
117, 7.65, 17.04, 6.99, 15.17, 0.016, -0.016, -1.024, 18:40:54.093, 1590856854093
118, 5.17, 7.09, 7.30, 5.41, 0.016, -0.016, -1.024, 18:40:54.093, 1590856854093
119, 4.64, 13.61, 6.34, 4.25, 0.016, -0.016, -1.024, 18:40:54.094, 1590856854094
120, 6.10, 9.87, 8.09, 9.92, 0.016, -0.016, -1.024, 18:40:54.094, 1590856854094
121, 8.54, 11.54, 8.84, 10.52, 0.016, -0.016, -1.024, 18:40:54.107, 1590856854107
122, 0.57, 8.90, 5.10, 6.95, 0.016, -0.016, -1.024, 18:40:54.107, 1590856854107
123, 7.04, 14.98, 4.74, 9.45, 0.016, -0.016, -1.024, 18:40:54.140, 1590856854140
124, 11.15, 12.04, 8.63, 10.32, 0.016, -0.016, -1.024, 18:40:54.140, 1590856854140
125, 5.57, 9.57, 6.22, 13.57, 0.016, -0.016, -1.024, 18:40:54.140, 1590856854140
126, 2.01, 9.72, 2.67, 8.99, 0.016, -0.016, -1.040, 18:40:54.140, 1590856854140
127, 5.56, 9.63, 3.22, 9.64, 0.016, -0.016, -1.040, 18:40:54.141, 1590856854141
128, 10.63, 14.32, 4.28, 19.20, 0.016, -0.016, -1.040, 18:40:54.141, 1590856854141
129, 6.25, 12.81, 6.13, 12.24, 0.016, -0.016, -1.040, 18:40:54.142, 1590856854142
130, 7.57, 10.22, 4.41, 5.74, 0.016, -0.016, -1.040, 18:40:54.142, 1590856854142
131, 2.85, 10.50, 4.45, 5.84, 0.016, -0.016, -1.040, 18:40:54.153, 1590856854153
132, 8.39, 10.81, 7.12, 16.14, 0.016, -0.016, -1.040, 18:40:54.153, 1590856854153
133, 10.15, 10.50, 7.55, 12.32, 0.016, -0.016, -1.040, 18:40:54.167, 1590856854167
134, 5.03, 12.78, 5.71, 10.90, 0.016, -0.016, -1.040, 18:40:54.167, 1590856854167
135, 9.42, 12.03, 8.88, 5.57, 0.016, -0.016, -1.040, 18:40:54.183, 1590856854183
136, 5.77, 12.28, 6.01, 8.14, 0.016, -0.016, -1.040, 18:40:54.183, 1590856854183
137, 7.62, 11.36, 9.91, 10.31, 0.016, -0.016, -1.040, 18:40:54.184, 1590856854184
138, 6.04, 6.99, 7.62, 3.01, 0.016, -0.016, -1.040, 18:40:54.184, 1590856854184
139, 4.21, 10.29, 10.16, 11.03, 0.016, -0.016, -1.040, 18:40:54.198, 1590856854198
140, 6.90, 8.46, 5.93, 5.95, 0.016, -0.016, -1.040, 18:40:54.198, 1590856854198
141, 6.23, 12.89, 11.52, 14.20, 0.016, -0.016, -1.040, 18:40:54.213, 1590856854213
142, 6.26, 8.77, 3.31, 7.25, 0.016, -0.016, -1.040, 18:40:54.213, 1590856854213
143, 10.08, 13.31, 8.09, 8.69, 0.016, -0.016, -1.040, 18:40:54.214, 1590856854214
144, 6.82, 12.27, 8.43, 10.20, 0.016, -0.016, -1.040, 18:40:54.214, 1590856854214
145, 6.48, 14.00, 12.64, 14.39, 0.016, -0.016, -1.040, 18:40:54.228, 1590856854228
146, 2.86, 10.05, 7.87, 10.21, 0.016, -0.016, -1.040, 18:40:54.228, 1590856854228
147, 5.19, 10.06, 2.89, 8.88, 0.016, -0.016, -1.040, 18:40:54.243, 1590856854243
148, 8.25, 10.11, 9.70, 11.18, 0.016, -0.016, -1.040, 18:40:54.243, 1590856854243
149, 8.80, 9.76, 8.57, 15.38, 0.016, -0.016, -1.040, 18:40:54.244, 1590856854244
150, 2.84, 11.93, 6.91, 9.92, 0.016, -0.016, -1.040, 18:40:54.244, 1590856854244
151, 5.26, 9.66, 8.13, 13.67, 0.016, -0.016, -1.040, 18:40:54.274, 1590856854274
152, 1.35, 11.57, 2.27, 9.29, 0.016, -0.016, -1.040, 18:40:54.274, 1590856854274
153, 8.26, 9.39, 11.75, 14.88, 0.016, -0.016, -1.040, 18:40:54.275, 1590856854275
154, 5.70, 10.18, 6.37, 10.91, 0.016, -0.016, -1.040, 18:40:54.275, 1590856854275
155, 7.19, 9.12, 5.64, 7.61, 0.016, -0.016, -1.040, 18:40:54.276, 1590856854276
156, 6.89, 14.18, 4.12, 13.47, 0.016, -0.016, -1.040, 18:40:54.276, 1590856854276
157, 8.43, 8.83, 6.52, 10.22, 0.016, -0.016, -1.040, 18:40:54.287, 1590856854287
158, 7.18, 12.02, 7.69, 2.91, 0.016, -0.016, -1.040, 18:40:54.287, 1590856854287
159, 2.45, 10.06, 3.17, 8.83, 0.016, -0.016, -1.040, 18:40:54.303, 1590856854303
160, 8.69, 9.51, 4.79, 13.87, 0.016, -0.016, -1.040, 18:40:54.303, 1590856854303
161, 9.72, 11.79, 6.85, 7.91, 0.016, -0.016, -1.040, 18:40:54.304, 1590856854304
162, 5.81, 7.61, 3.54, 8.87, 0.016, -0.016, -1.040, 18:40:54.304, 1590856854304
163, 8.55, 11.04, 8.16, 7.97, 0.016, -0.016, -1.040, 18:40:54.318, 1590856854318
164, 2.59, 10.66, 6.07, 10.78, 0.016, -0.016, -1.040, 18:40:54.318, 1590856854318
165, 8.79, 12.51, 9.37, 14.26, 0.016, -0.016, -1.040, 18:40:54.333, 1590856854333
166, 1.87, 13.03, 9.12, 6.29, 0.016, -0.016, -1.056, 18:40:54.333, 1590856854333
167, 4.70, 10.19, 9.90, 11.57, 0.016, -0.016, -1.056, 18:40:54.334, 1590856854334
168, 4.52, 8.53, 8.74, 13.35, 0.016, -0.016, -1.056, 18:40:54.334, 1590856854334
169, 9.51, 7.52, 8.17, 7.09, 0.016, -0.016, -1.056, 18:40:54.348, 1590856854348
170, 4.19, 6.65, 7.53, 6.66, 0.016, -0.016, -1.056, 18:40:54.348, 1590856854348
171, 3.55, 8.72, 8.54, 10.08, 0.016, -0.016, -1.056, 18:40:54.363, 1590856854363
172, 6.36, 11.17, 6.09, 12.69, 0.016, -0.016, -1.056, 18:40:54.363, 1590856854363
173, 5.94, 5.75, 5.91, 13.60, 0.016, -0.016, -1.056, 18:40:54.365, 1590856854365
174, 4.87, 4.59, 2.35, 6.25, 0.016, -0.016, -1.056, 18:40:54.365, 1590856854365
175, 4.61, 10.89, 6.30, 14.65, 0.016, -0.016, -1.056, 18:40:54.394, 1590856854394
176, 7.91, 10.04, 9.12, 11.43, 0.016, -0.016, -1.056, 18:40:54.394, 1590856854394
177, 10.07, 5.45, 12.11, 11.23, 0.016, -0.016, -1.056, 18:40:54.394, 1590856854394
178, 5.81, 9.20, 10.66, 3.32, 0.016, -0.016, -1.056, 18:40:54.394, 1590856854394
179, 3.67, 9.74, 7.38, 9.63, 0.016, -0.016, -1.056, 18:40:54.395, 1590856854395
180, 5.61, 7.29, 6.73, 13.11, 0.016, -0.016, -1.056, 18:40:54.395, 1590856854395
181, 7.06, 13.71, 8.37, 10.58, 0.016, -0.016, -1.056, 18:40:54.424, 1590856854424
182, 10.80, 4.78, 5.67, 7.24, 0.016, -0.016, -1.056, 18:40:54.424, 1590856854424
183, 4.30, 7.05, 6.18, 8.35, 0.016, -0.016, -1.056, 18:40:54.424, 1590856854424
184, 7.81, 9.71, 6.63, 9.60, 0.016, -0.016, -1.056, 18:40:54.424, 1590856854424
185, 6.70, 14.23, 9.20, 12.78, 0.016, -0.016, -1.056, 18:40:54.425, 1590856854425
186, 3.99, 8.01, 12.92, 3.24, 0.016, -0.016, -1.056, 18:40:54.425, 1590856854425
187, 3.85, 11.92, 9.27, 7.92, 0.016, -0.016, -1.056, 18:40:54.438, 1590856854438
188, 8.98, 10.14, 8.87, 10.84, 0.016, -0.016, -1.056, 18:40:54.438, 1590856854438
189, 8.96, 9.41, 6.02, 12.22, 0.016, -0.016, -1.056, 18:40:54.453, 1590856854453
190, 10.51, 10.93, 6.60, 13.17, 0.016, -0.016, -1.056, 18:40:54.453, 1590856854453
191, 6.92, 10.83, 2.73, 9.86, 0.016, -0.016, -1.056, 18:40:54.455, 1590856854455
192, 3.92, 11.15, 7.93, 6.90, 0.016, -0.016, -1.056, 18:40:54.455, 1590856854455
193, 4.91, 7.85, 10.41, 10.23, 0.016, -0.016, -1.056, 18:40:54.467, 1590856854467
194, 4.25, 6.48, 6.27, 1.95, 0.016, -0.016, -1.056, 18:40:54.467, 1590856854467
195, 4.11, 11.46, 8.01, 12.78, 0.016, -0.016, -1.056, 18:40:54.483, 1590856854483
196, 11.47, 10.59, 8.09, 10.88, 0.016, -0.016, -1.056, 18:40:54.483, 1590856854483
197, 3.16, 9.74, 9.64, 10.24, 0.016, -0.016, -1.056, 18:40:54.499, 1590856854499
198, 4.66, 11.18, 6.05, 7.49, 0.016, -0.016, -1.056, 18:40:54.499, 1590856854499
199, 6.64, 11.96, 5.34, 11.53, 0.016, -0.016, -1.056, 18:40:54.500, 1590856854500
200, 7.05, 9.57, 4.04, 7.52, 0.016, -0.016, -1.056, 18:40:54.500, 1590856854500
0, 4.78, 10.10, 7.95, 9.18, 0.016, -0.016, -1.056, 18:40:54.501, 1590856854501
1, 4.82, 11.98, 6.85, 8.78, 0.016, -0.016, -1.056, 18:40:54.513, 1590856854513
2, 10.93, 14.29, 10.33, 11.51, 0.016, -0.016, -1.056, 18:40:54.513, 1590856854513
3, 5.70, 8.46, 6.70, 11.13, 0.016, -0.016, -1.056, 18:40:54.529, 1590856854529
4, 6.94, 9.60, 6.27, 13.02, 0.016, -0.016, -1.056, 18:40:54.529, 1590856854529
5, 3.47, 9.00, 5.66, 7.75, 0.016, -0.016, -1.056, 18:40:54.529, 1590856854529
6, 3.89, 12.50, 3.21, 8.85, 0.016, -0.016, -1.056, 18:40:54.529, 1590856854529
7, 6.57, 12.68, 7.11, 9.79, 0.016, -0.016, -1.056, 18:40:54.543, 1590856854543
8, 7.44, 8.49, 6.82, 9.48, 0.016, -0.016, -1.056, 18:40:54.543, 1590856854543
9, 7.49, 13.35, 5.62, 8.01, 0.016, -0.016, -1.056, 18:40:54.575, 1590856854575
10, 7.10, 12.87, 13.27, 6.69, 0.016, -0.016, -1.056, 18:40:54.575, 1590856854575
11, 5.40, 12.91, 5.16, 10.24, 0.016, -0.016, -1.056, 18:40:54.576, 1590856854576
12, 9.32, 14.03, 4.95, 13.19, 0.016, -0.016, -1.056, 18:40:54.576, 1590856854576
13, 9.04, 8.76, 8.18, 11.10, 0.016, -0.016, -1.056, 18:40:54.576, 1590856854576
14, 7.68, 13.16, 10.18, 9.29, 0.016, -0.016, -1.056, 18:40:54.576, 1590856854576
15, 11.44, 13.76, 11.96, 9.34, 0.016, -0.016, -1.056, 18:40:54.577, 1590856854577
16, 8.81, 13.39, 9.47, 9.07, 0.016, -0.016, -1.056, 18:40:54.577, 1590856854577
17, 3.36, 7.92, 6.33, 3.09, 0.016, -0.016, -1.056, 18:40:54.619, 1590856854619
18, 2.81, 13.31, 5.20, 11.11, 0.016, -0.016, -1.056, 18:40:54.619, 1590856854619
19, 10.97, 12.79, 8.13, 15.00, 0.016, -0.016, -1.056, 18:40:54.620, 1590856854620
20, 4.39, 13.17, 8.08, 8.04, 0.016, -0.016, -1.056, 18:40:54.620, 1590856854620
21, 8.92, 11.57, 6.47, 1.01, 0.016, -0.016, -1.056, 18:40:54.621, 1590856854621
22, 5.13, 12.78, 6.69, 8.32, 0.016, -0.016, -1.056, 18:40:54.621, 1590856854621
23, 6.72, 12.73, 8.08, 10.32, 0.016, -0.016, -1.056, 18:40:54.622, 1590856854622
24, 1.78, 11.45, 0.66, 8.74, 0.016, -0.016, -1.056, 18:40:54.622, 1590856854622
25, 4.89, 7.61, 5.24, 7.80, 0.016, -0.016, -1.056, 18:40:54.632, 1590856854632
26, 4.80, 9.97, 2.32, 4.60, 0.016, -0.016, -1.056, 18:40:54.632, 1590856854632
27, 8.48, 12.31, 6.54, 10.22, 0.016, -0.016, -1.056, 18:40:54.649, 1590856854649
28, 5.19, 8.61, 8.64, 12.04, 0.016, -0.016, -1.056, 18:40:54.649, 1590856854649
29, 4.64, 10.00, 8.57, 2.93, 0.016, -0.016, -1.056, 18:40:54.650, 1590856854650
30, 1.85, 6.92, 7.93, 11.26, 0.016, -0.016, -1.056, 18:40:54.650, 1590856854650
31, 6.71, 11.40, 10.00, 10.29, 0.016, -0.016, -1.056, 18:40:54.679, 1590856854679
32, 3.89, 10.24, 5.10, 8.12, 0.016, -0.016, -1.056, 18:40:54.679, 1590856854679
33, 3.58, 10.76, 7.14, 4.00, 0.016, -0.016, -1.056, 18:40:54.680, 1590856854680
34, 6.17, 14.16, 8.27, 15.95, 0.016, -0.016, -1.056, 18:40:54.680, 1590856854680
35, 8.66, 14.81, 6.71, 12.53, 0.016, -0.016, -1.056, 18:40:54.680, 1590856854680
36, 5.65, 12.92, 9.35, 8.86, 0.016, -0.016, -1.056, 18:40:54.680, 1590856854680
37, 7.08, 13.27, 8.54, 6.65, 0.016, -0.016, -1.056, 18:40:54.693, 1590856854693
38, 4.42, 13.09, 4.48, 7.89, 0.016, -0.016, -1.056, 18:40:54.693, 1590856854693
39, 4.19, 10.73, 4.56, 7.34, 0.016, -0.016, -1.056, 18:40:54.709, 1590856854709
40, 6.87, 12.51, 7.92, 12.56, 0.016, -0.016, -1.056, 18:40:54.709, 1590856854709
41, 3.63, 12.43, 3.51, 6.63, 0.016, -0.016, -1.056, 18:40:54.709, 1590856854709
42, 0.71, 7.82, 3.56, 9.43, 0.016, -0.016, -1.056, 18:40:54.709, 1590856854709
43, 11.12, 13.39, 7.54, 14.39, 0.016, -0.016, -1.056, 18:40:54.722, 1590856854722
44, 1.51, 10.05, 5.01, 10.24, 0.016, -0.016, -1.056, 18:40:54.722, 1590856854722
45, 2.51, 11.63, -0.07, 3.59, 0.016, -0.016, -1.056, 18:40:54.738, 1590856854738
46, 7.09, 10.28, 5.11, 5.55, 0.016, -0.016, -1.040, 18:40:54.738, 1590856854738
47, 5.52, 10.59, 8.54, 11.66, 0.016, -0.016, -1.040, 18:40:54.739, 1590856854739
48, 4.56, 13.21, 4.36, 17.51, 0.016, -0.016, -1.040, 18:40:54.739, 1590856854739
49, 1.05, 12.32, 7.04, 13.71, 0.016, -0.016, -1.040, 18:40:54.753, 1590856854753
50, 0.37, 5.77, 8.34, 4.33, 0.016, -0.016, -1.040, 18:40:54.753, 1590856854753
51, 10.37, 15.09, 9.28, 11.52, 0.016, -0.016, -1.040, 18:40:54.768, 1590856854768
52, 8.78, 12.48, 5.11, 11.06, 0.016, -0.016, -1.040, 18:40:54.768, 1590856854768
53, 5.84, 10.48, 6.56, 8.49, 0.016, -0.016, -1.040, 18:40:54.769, 1590856854769
54, 4.82, 10.59, 4.08, 7.42, 0.016, -0.016, -1.040, 18:40:54.769, 1590856854769
55, 7.81, 10.88, 8.81, 9.10, 0.016, -0.016, -1.040, 18:40:54.783, 1590856854783
56, 5.68, 8.90, 8.83, 13.99, 0.016, -0.016, -1.040, 18:40:54.783, 1590856854783
57, 10.03, 13.21, 8.00, 10.58, 0.016, -0.016, -1.040, 18:40:54.799, 1590856854799
58, 5.68, 11.02, 8.00, 10.33, 0.016, -0.016, -1.040, 18:40:54.799, 1590856854799
59, 5.91, 14.02, 6.78, 14.26, 0.016, -0.016, -1.040, 18:40:54.799, 1590856854799
60, 5.40, 11.87, 5.98, 8.80, 0.016, -0.016, -1.040, 18:40:54.799, 1590856854799
61, 7.86, 8.87, 6.23, 8.94, 0.016, -0.016, -1.040, 18:40:54.812, 1590856854812
62, 4.89, 5.02, 4.09, 9.53, 0.016, -0.016, -1.040, 18:40:54.812, 1590856854812
63, 12.41, 9.01, 8.03, 10.96, 0.016, -0.016, -1.040, 18:40:54.828, 1590856854828
64, 3.19, 11.00, 2.83, 8.96, 0.016, -0.016, -1.040, 18:40:54.828, 1590856854828
65, 1.49, 8.37, 0.42, 4.35, 0.016, -0.016, -1.040, 18:40:54.829, 1590856854829
66, 4.20, 10.01, 0.95, 4.25, 0.016, -0.016, -1.056, 18:40:54.829, 1590856854829
67, 6.81, 8.71, 8.54, 15.59, 0.016, -0.016, -1.056, 18:40:54.843, 1590856854843
68, 6.76, 7.42, 4.68, 8.64, 0.016, -0.016, -1.056, 18:40:54.843, 1590856854843
69, 4.76, 12.45, 6.24, 8.77, 0.016, -0.016, -1.056, 18:40:54.858, 1590856854858
70, 2.01, 12.85, 9.96, 4.38, 0.016, -0.016, -1.056, 18:40:54.858, 1590856854858
71, 6.20, 10.80, 4.99, 9.94, 0.016, -0.016, -1.056, 18:40:54.859, 1590856854859
72, 5.87, 11.57, 8.20, 10.85, 0.016, -0.016, -1.056, 18:40:54.859, 1590856854859
73, 7.02, 11.79, 4.97, 9.05, 0.016, -0.016, -1.056, 18:40:54.873, 1590856854873
74, 7.03, 5.57, 6.57, 10.57, 0.016, -0.016, -1.056, 18:40:54.873, 1590856854873
75, 9.27, 11.74, 11.02, 11.88, 0.016, -0.016, -1.056, 18:40:54.905, 1590856854905
76, 9.01, 13.58, 5.90, 13.29, 0.016, -0.016, -1.056, 18:40:54.905, 1590856854905
77, 4.33, 9.73, 6.54, 6.16, 0.016, -0.016, -1.056, 18:40:54.905, 1590856854905
78, 4.93, 8.81, 4.48, 7.38, 0.016, -0.016, -1.056, 18:40:54.905, 1590856854905
79, 7.03, 11.63, 10.24, 9.66, 0.016, -0.016, -1.056, 18:40:54.906, 1590856854906
80, 8.88, 8.59, 10.69, 10.85, 0.016, -0.016, -1.056, 18:40:54.906, 1590856854906
81, 4.13, 10.48, 4.50, 10.20, 0.016, -0.016, -1.056, 18:40:54.907, 1590856854907
82, 6.51, 10.64, 8.07, 10.04, 0.016, -0.016, -1.056, 18:40:54.907, 1590856854907
83, 8.07, 11.07, 7.55, 7.80, 0.016, -0.016, -1.056, 18:40:54.918, 1590856854918
84, 8.01, 7.30, 6.91, 10.30, 0.016, -0.016, -1.056, 18:40:54.918, 1590856854918
85, 6.28, 10.11, 6.42, 4.78, 0.016, -0.016, -1.056, 18:40:54.933, 1590856854933
86, 4.68, 5.45, 9.12, 7.99, 0.016, -0.016, -1.056, 18:40:54.933, 1590856854933
87, 6.58, 8.31, 7.34, 10.68, 0.016, -0.016, -1.056, 18:40:54.949, 1590856854949
88, 9.62, 9.85, 8.63, 11.56, 0.016, -0.016, -1.056, 18:40:54.949, 1590856854949
89, 3.98, 4.69, 9.91, 7.10, 0.016, -0.016, -1.056, 18:40:54.949, 1590856854949
90, 6.22, 9.31, 4.89, 2.89, 0.016, -0.016, -1.056, 18:40:54.949, 1590856854949
91, 7.06, 9.96, 8.15, 5.87, 0.016, -0.016, -1.056, 18:40:54.963, 1590856854963
92, 5.65, 14.67, 6.54, 13.38, 0.016, -0.016, -1.056, 18:40:54.963, 1590856854963
93, 4.67, 12.12, 8.12, 9.50, 0.016, -0.016, -1.056, 18:40:54.978, 1590856854978
94, 5.76, 12.96, 6.44, 6.15, 0.016, -0.016, -1.056, 18:40:54.978, 1590856854978
95, 6.76, 13.21, 6.62, 7.02, 0.016, -0.016, -1.056, 18:40:54.979, 1590856854979
96, 9.76, 6.92, 4.48, 13.61, 0.016, -0.016, -1.056, 18:40:54.979, 1590856854979
97, 5.79, 9.85, 5.92, 8.94, 0.016, -0.016, -1.056, 18:40:54.992, 1590856854992
98, -1.13, 9.22, 2.74, 8.41, 0.016, -0.016, -1.056, 18:40:54.992, 1590856854992
99, 8.70, 11.15, 8.46, 9.41, 0.016, -0.016, -1.056, 18:40:55.009, 1590856855009
100, 5.22, 10.40, 8.41, 5.65, 0.016, -0.016, -1.056, 18:40:55.009, 1590856855009
101, 5.22, 7.22, 9.19, 9.26, 0.016, -0.016, -1.056, 18:40:55.009, 1590856855009
102, -0.36, 7.43, 6.24, 7.03, 0.016, -0.016, -1.056, 18:40:55.009, 1590856855009
103, 9.77, 14.57, 7.88, 9.90, 0.016, -0.016, -1.056, 18:40:55.022, 1590856855022
104, 4.79, 8.96, 2.75, 6.15, 0.016, -0.016, -1.056, 18:40:55.023, 1590856855023
105, 5.20, 10.58, 10.20, 16.73, 0.016, -0.016, -1.056, 18:40:55.038, 1590856855038
106, 6.79, 12.12, 8.12, 7.34, 0.016, -0.016, -1.056, 18:40:55.038, 1590856855038
107, 10.58, 10.80, 10.42, 13.26, 0.016, -0.016, -1.056, 18:40:55.053, 1590856855053
108, 6.77, 5.45, 4.46, 8.06, 0.016, -0.016, -1.056, 18:40:55.053, 1590856855053
109, 4.03, 7.70, 8.44, 4.51, 0.016, -0.016, -1.056, 18:40:55.054, 1590856855054
110, -1.29, 10.84, 10.37, 10.06, 0.016, -0.016, -1.056, 18:40:55.054, 1590856855054
111, 6.82, 12.70, 7.85, 16.09, 0.016, -0.016, -1.056, 18:40:55.068, 1590856855068
112, 6.55, 12.50, 8.23, 12.18, 0.016, -0.016, -1.056, 18:40:55.068, 1590856855068
113, 5.59, 10.68, 6.10, 9.59, 0.016, -0.016, -1.056, 18:40:55.069, 1590856855069
114, 8.87, 12.77, 9.45, 10.28, 0.016, -0.016, -1.056, 18:40:55.069, 1590856855069
115, 7.92, 12.42, 5.18, 12.27, 0.016, -0.016, -1.056, 18:40:55.082, 1590856855082
116, 11.36, 10.09, 7.29, 10.86, 0.016, -0.016, -1.056, 18:40:55.082, 1590856855082
117, 4.56, 12.54, 11.25, 11.76, 0.016, -0.016, -1.056, 18:40:55.099, 1590856855099
118, 1.91, 10.67, 9.90, 10.67, 0.016, -0.016, -1.056, 18:40:55.099, 1590856855099
119, 6.48, 10.92, 9.33, 5.87, 0.016, -0.016, -1.056, 18:40:55.100, 1590856855100
120, 5.60, 12.75, 3.06, 8.00, 0.016, -0.016, -1.056, 18:40:55.100, 1590856855100
121, 4.66, 4.37, 9.29, 6.89, 0.016, -0.016, -1.056, 18:40:55.112, 1590856855112
122, 1.99, 11.98, 6.97, 10.66, 0.016, -0.016, -1.056, 18:40:55.112, 1590856855112
123, 5.43, 14.27, 9.80, 9.74, 0.016, -0.016, -1.056, 18:40:55.128, 1590856855128
124, 7.29, 11.75, 12.42, 12.17, 0.016, -0.016, -1.056, 18:40:55.128, 1590856855128
125, 6.29, 11.86, 3.12, 4.96, 0.016, -0.016, -1.056, 18:40:55.129, 1590856855129
126, 4.70, 9.93, 5.09, 8.11, 0.016, -0.016, -1.056, 18:40:55.129, 1590856855129
127, 8.01, 14.45, 7.09, 12.16, 0.016, -0.016, -1.056, 18:40:55.143, 1590856855143
128, 8.57, 9.39, 9.08, 7.95, 0.016, -0.016, -1.056, 18:40:55.143, 1590856855143
129, 7.58, 10.80, 0.11, 6.78, 0.016, -0.016, -1.056, 18:40:55.158, 1590856855158
130, 5.63, 8.82, 4.36, 7.90, 0.016, -0.016, -1.056, 18:40:55.158, 1590856855158
131, 5.42, 9.73, 8.86, 10.35, 0.016, -0.016, -1.056, 18:40:55.174, 1590856855174
132, 7.78, 7.74, 8.37, 18.57, 0.016, -0.016, -1.056, 18:40:55.174, 1590856855174
133, 5.94, 15.25, 2.56, 5.62, 0.016, -0.016, -1.056, 18:40:55.174, 1590856855174
134, 6.44, 9.77, 3.44, 9.35, 0.016, -0.016, -1.056, 18:40:55.174, 1590856855174
135, 8.59, 16.20, 5.15, 14.23, 0.016, -0.016, -1.056, 18:40:55.188, 1590856855188
136, 10.31, 14.61, 5.56, 10.24, 0.016, -0.016, -1.056, 18:40:55.188, 1590856855188
137, 3.90, 9.79, 4.49, 4.31, 0.016, -0.016, -1.056, 18:40:55.189, 1590856855189
138, 9.26, 5.90, 10.02, 7.48, 0.016, -0.016, -1.056, 18:40:55.189, 1590856855189
139, 7.70, 8.63, 8.05, 13.36, 0.016, -0.016, -1.056, 18:40:55.203, 1590856855203
140, 9.84, 12.06, 4.93, 9.68, 0.016, -0.016, -1.056, 18:40:55.203, 1590856855203
141, 10.16, 3.96, 3.79, 6.59, 0.016, -0.016, -1.056, 18:40:55.234, 1590856855234
142, 7.79, 11.30, 6.13, 6.50, 0.016, -0.016, -1.056, 18:40:55.234, 1590856855234
143, 8.22, 9.71, 2.88, 10.41, 0.016, -0.016, -1.056, 18:40:55.235, 1590856855235
144, 10.10, 9.12, 7.16, 12.01, 0.016, -0.016, -1.056, 18:40:55.235, 1590856855235
145, 3.42, 11.07, 2.63, 5.28, 0.016, -0.016, -1.056, 18:40:55.236, 1590856855236
146, 8.76, 12.89, 13.03, 10.27, 0.016, -0.016, -1.056, 18:40:55.236, 1590856855236
147, 2.71, 8.00, 10.52, 9.18, 0.016, -0.016, -1.056, 18:40:55.237, 1590856855237
148, 5.54, 14.13, 7.58, 10.98, 0.016, -0.016, -1.056, 18:40:55.237, 1590856855237
149, 3.21, 5.75, 7.00, 7.68, 0.016, -0.016, -1.056, 18:40:55.248, 1590856855248
150, 11.10, 14.47, 9.74, 12.36, 0.016, -0.016, -1.056, 18:40:55.248, 1590856855248
151, 7.57, 10.08, 6.43, 10.60, 0.016, -0.016, -1.056, 18:40:55.263, 1590856855263
152, 5.79, 7.49, 12.40, 12.46, 0.016, -0.016, -1.056, 18:40:55.263, 1590856855263
153, 3.58, 5.48, 5.91, 8.61, 0.016, -0.016, -1.056, 18:40:55.295, 1590856855295
154, 0.75, 10.64, 7.79, 7.10, 0.016, -0.016, -1.056, 18:40:55.295, 1590856855295
155, 6.66, 15.30, 7.62, 11.84, 0.016, -0.016, -1.056, 18:40:55.295, 1590856855295
156, 5.34, 13.58, 10.71, 12.25, 0.016, -0.016, -1.056, 18:40:55.295, 1590856855295
157, 2.34, 8.76, 8.16, 9.37, 0.016, -0.016, -1.056, 18:40:55.296, 1590856855296
158, 4.39, 10.52, 8.90, 11.03, 0.016, -0.016, -1.056, 18:40:55.296, 1590856855296
159, 4.55, 8.12, 9.89, 8.14, 0.016, -0.016, -1.056, 18:40:55.297, 1590856855297
160, 7.85, 11.01, 8.77, 13.76, 0.016, -0.016, -1.056, 18:40:55.297, 1590856855297
161, -0.88, 7.81, 2.52, 5.66, 0.016, -0.016, -1.056, 18:40:55.307, 1590856855307
162, 1.27, 9.25, 4.69, 7.09, 0.016, -0.016, -1.056, 18:40:55.307, 1590856855307
163, 5.29, 12.02, 6.68, 14.83, 0.016, -0.016, -1.056, 18:40:55.323, 1590856855323
164, 3.89, 7.47, 8.85, 13.20, 0.016, -0.016, -1.056, 18:40:55.323, 1590856855323
165, 3.47, 11.23, 5.17, 11.26, 0.016, -0.016, -1.056, 18:40:55.338, 1590856855338
166, 7.49, 12.32, 8.77, 13.51, 0.016, -0.016, -1.056, 18:40:55.338, 1590856855338
167, 6.42, 9.07, 10.21, 15.32, 0.016, -0.016, -1.056, 18:40:55.339, 1590856855339
168, 8.96, 7.72, 9.11, 13.88, 0.016, -0.016, -1.056, 18:40:55.339, 1590856855339
169, 7.85, 9.79, 5.43, 7.79, 0.016, -0.016, -1.056, 18:40:55.353, 1590856855353
170, 9.68, 9.06, 0.32, 6.57, 0.016, -0.016, -1.056, 18:40:55.353, 1590856855353
171, 8.76, 10.77, 11.91, 5.89, 0.016, -0.016, -1.056, 18:40:55.368, 1590856855368
172, 3.42, 9.14, 7.73, 11.30, 0.016, -0.016, -1.056, 18:40:55.368, 1590856855368
173, 8.09, 9.75, 3.23, 7.07, 0.016, -0.016, -1.056, 18:40:55.369, 1590856855369
174, 4.29, 9.29, 4.21, 5.48, 0.016, -0.016, -1.056, 18:40:55.369, 1590856855369
175, 10.60, 14.35, 6.31, 13.79, 0.016, -0.016, -1.056, 18:40:55.383, 1590856855383
176, 4.57, 10.97, 0.63, 16.83, 0.016, -0.016, -1.056, 18:40:55.383, 1590856855383
177, 7.59, 9.32, 4.24, 5.25, 0.016, -0.016, -1.056, 18:40:55.398, 1590856855398
178, 9.98, 10.03, 3.42, 9.09, 0.016, -0.016, -1.056, 18:40:55.398, 1590856855398
179, 7.55, 8.88, 11.31, 11.29, 0.016, -0.016, -1.056, 18:40:55.399, 1590856855399
180, 7.69, 6.80, 10.64, 9.02, 0.016, -0.016, -1.056, 18:40:55.399, 1590856855399
181, 0.46, 10.86, 6.17, 6.65, 0.016, -0.016, -1.056, 18:40:55.413, 1590856855413
182, 4.87, 11.24, 3.97, 4.64, 0.016, -0.016, -1.056, 18:40:55.413, 1590856855413
183, 9.91, 16.82, 10.22, 8.73, 0.016, -0.016, -1.056, 18:40:55.428, 1590856855428
184, 8.52, 9.31, 3.05, 13.15, 0.016, -0.016, -1.056, 18:40:55.428, 1590856855428
185, 4.23, 8.06, 6.49, 8.31, 0.016, -0.016, -1.056, 18:40:55.443, 1590856855443
186, 3.86, 10.37, 7.22, 7.63, 0.016, -0.016, -1.056, 18:40:55.443, 1590856855443
187, 5.14, 10.64, 7.58, 16.20, 0.016, -0.016, -1.056, 18:40:55.444, 1590856855444
188, 7.19, 9.51, 8.48, 12.08, 0.016, -0.016, -1.056, 18:40:55.444, 1590856855444
189, 5.92, 6.39, 5.95, 9.57, 0.016, -0.016, -1.056, 18:40:55.458, 1590856855458
190, 3.59, 11.87, 6.55, 12.65, 0.016, -0.016, -1.056, 18:40:55.458, 1590856855458
191, 6.65, 12.78, 8.99, 8.99, 0.016, -0.016, -1.056, 18:40:55.459, 1590856855459
192, 12.17, 14.00, 6.46, 12.55, 0.016, -0.016, -1.056, 18:40:55.459, 1590856855459
193, 5.52, 9.37, 4.04, 4.37, 0.016, -0.016, -1.056, 18:40:55.473, 1590856855473
194, 0.56, 12.37, 5.74, 6.83, 0.016, -0.016, -1.056, 18:40:55.473, 1590856855473
195, 8.15, 16.65, 11.97, 8.81, 0.016, -0.016, -1.056, 18:40:55.488, 1590856855488
196, 7.74, 11.34, 6.87, 9.93, 0.016, -0.016, -1.056, 18:40:55.488, 1590856855488
197, 6.27, 11.44, 7.47, 4.14, 0.016, -0.016, -1.056, 18:40:55.504, 1590856855504
198, 4.90, 9.88, 5.58, 1.04, 0.016, -0.016, -1.056, 18:40:55.504, 1590856855504
199, 4.15, 7.37, 6.84, 11.40, 0.016, -0.016, -1.056, 18:40:55.504, 1590856855504
200, 3.14, 10.22, 5.09, 8.14, 0.016, -0.016, -1.056, 18:40:55.504, 1590856855504
0, 6.36, 11.90, 3.49, 7.39, 0.016, -0.016, -1.056, 18:40:55.505, 1590856855505
1, 6.78, 9.49, 9.46, 6.49, 0.016, -0.016, -1.056, 18:40:55.518, 1590856855518
2, 7.86, 15.86, 10.64, 13.78, 0.016, -0.016, -1.056, 18:40:55.518, 1590856855518
3, 6.67, 8.46, 4.58, 9.56, 0.016, -0.016, -1.056, 18:40:55.533, 1590856855533
4, 2.62, 7.56, 3.84, 5.68, 0.016, -0.016, -1.056, 18:40:55.533, 1590856855533
5, 3.95, 13.74, 5.71, 8.40, 0.016, -0.016, -1.056, 18:40:55.534, 1590856855534
6, 2.66, 5.45, 3.04, 12.73, 0.016, -0.016, -1.056, 18:40:55.534, 1590856855534
7, 7.10, 10.68, 6.71, 11.06, 0.016, -0.016, -1.056, 18:40:55.548, 1590856855548
8, 1.39, 7.78, 1.44, 4.91, 0.016, -0.016, -1.056, 18:40:55.548, 1590856855548
9, 5.28, 11.25, 3.21, 3.48, 0.016, -0.016, -1.056, 18:40:55.564, 1590856855564
10, 4.46, 12.83, 5.80, 14.47, 0.016, -0.016, -1.056, 18:40:55.564, 1590856855564
11, 3.13, 8.69, 6.18, 11.94, 0.016, -0.016, -1.056, 18:40:55.565, 1590856855565
12, 2.73, 7.78, 4.42, 5.43, 0.016, -0.016, -1.056, 18:40:55.565, 1590856855565
13, 6.54, 11.76, 5.31, 11.28, 0.016, -0.016, -1.056, 18:40:55.577, 1590856855577
14, 6.66, 10.82, 3.25, 6.15, 0.016, -0.016, -1.056, 18:40:55.577, 1590856855577
15, 1.41, 12.19, 8.72, 8.81, 0.016, -0.016, -1.056, 18:40:55.610, 1590856855610
16, 6.18, 12.42, 5.14, 4.88, 0.016, -0.016, -1.056, 18:40:55.610, 1590856855610
17, 3.08, 8.51, 7.11, 3.23, 0.016, -0.016, -1.056, 18:40:55.611, 1590856855611
18, 8.24, 10.26, 8.63, 17.13, 0.016, -0.016, -1.056, 18:40:55.611, 1590856855611
19, 3.37, 12.28, 6.28, 12.62, 0.016, -0.016, -1.056, 18:40:55.612, 1590856855612
20, -0.20, 11.16, 7.29, 9.88, 0.016, -0.016, -1.056, 18:40:55.612, 1590856855612
21, 0.02, 10.38, 1.26, 9.48, 0.016, -0.016, -1.056, 18:40:55.613, 1590856855613
22, 7.76, 8.79, 8.64, 14.22, 0.016, -0.016, -1.056, 18:40:55.613, 1590856855613
23, 6.04, 6.63, 5.46, 5.99, 0.016, -0.016, -1.056, 18:40:55.623, 1590856855623
24, 5.50, 10.65, 6.91, 5.41, 0.016, -0.016, -1.056, 18:40:55.623, 1590856855623
25, 9.82, 10.77, 6.05, 7.53, 0.016, -0.016, -1.056, 18:40:55.654, 1590856855654
26, 4.17, 10.89, 5.51, 13.50, 0.016, -0.016, -1.056, 18:40:55.654, 1590856855654
27, 3.54, 7.07, 4.08, 9.77, 0.016, -0.016, -1.056, 18:40:55.655, 1590856855655
28, 7.20, 10.80, 5.22, 7.05, 0.016, -0.016, -1.056, 18:40:55.655, 1590856855655
29, 8.12, 9.84, 7.67, 6.51, 0.016, -0.016, -1.056, 18:40:55.656, 1590856855656
30, 8.74, 14.74, 11.37, 14.33, 0.016, -0.016, -1.056, 18:40:55.656, 1590856855656
31, 6.99, 9.66, 8.84, 10.19, 0.016, -0.016, -1.056, 18:40:55.684, 1590856855684
32, 8.41, 14.94, 6.04, 2.56, 0.016, -0.016, -1.056, 18:40:55.684, 1590856855684
33, 1.73, 8.94, 3.10, 6.47, 0.016, -0.016, -1.056, 18:40:55.685, 1590856855685
34, 10.77, 9.73, 7.70, 9.73, 0.016, -0.016, -1.056, 18:40:55.685, 1590856855685
35, 9.15, 13.24, 8.94, 5.74, 0.016, -0.016, -1.056, 18:40:55.685, 1590856855685
36, 3.28, 10.49, 5.39, 6.10, 0.016, -0.016, -1.056, 18:40:55.685, 1590856855685
37, 5.93, 12.99, 5.46, 9.47, 0.016, -0.016, -1.056, 18:40:55.698, 1590856855698
38, 8.08, 15.22, 12.10, 20.95, 0.016, -0.016, -1.056, 18:40:55.698, 1590856855698
39, 3.80, 7.86, 7.33, 13.21, 0.016, -0.016, -1.056, 18:40:55.730, 1590856855730
40, 1.15, 7.50, 9.54, 6.94, 0.016, -0.016, -1.056, 18:40:55.730, 1590856855730
41, 8.66, 11.10, 10.15, 10.55, 0.016, -0.016, -1.056, 18:40:55.731, 1590856855731
42, 5.52, 8.53, 9.87, 13.14, 0.016, -0.016, -1.056, 18:40:55.731, 1590856855731
43, 5.05, 11.40, 8.37, 6.87, 0.016, -0.016, -1.056, 18:40:55.731, 1590856855731
44, 7.72, 8.58, 8.05, 8.13, 0.016, -0.016, -1.056, 18:40:55.731, 1590856855731
45, 7.65, 11.31, 5.55, 5.21, 0.016, -0.016, -1.056, 18:40:55.732, 1590856855732
46, 8.09, 14.92, 7.21, 9.42, 0.016, -0.016, -1.056, 18:40:55.732, 1590856855732
47, 8.07, 7.69, 5.64, 14.53, 0.016, -0.016, -1.056, 18:40:55.742, 1590856855742
48, 5.02, 12.07, 4.21, 9.31, 0.016, -0.016, -1.056, 18:40:55.742, 1590856855742
49, 4.36, 9.94, 9.09, 12.84, 0.016, -0.016, -1.056, 18:40:55.758, 1590856855758
50, 7.26, 13.13, 11.09, 10.07, 0.016, -0.016, -1.056, 18:40:55.758, 1590856855758
51, 8.64, 16.07, 3.13, 14.59, 0.016, -0.016, -1.056, 18:40:55.773, 1590856855773
52, 5.74, 11.98, 5.74, 10.90, 0.016, -0.016, -1.056, 18:40:55.773, 1590856855773
53, 2.20, 10.83, 7.32, 9.86, 0.016, -0.016, -1.056, 18:40:55.788, 1590856855788
54, 4.91, 11.81, 3.43, 9.06, 0.016, -0.016, -1.056, 18:40:55.788, 1590856855788
55, 5.10, 16.20, 5.32, 7.69, 0.016, -0.016, -1.056, 18:40:55.789, 1590856855789
56, 8.41, 6.83, 6.17, 7.55, 0.016, -0.016, -1.056, 18:40:55.789, 1590856855789
57, 3.81, 10.79, 7.65, 8.57, 0.016, -0.016, -1.056, 18:40:55.803, 1590856855803
58, 6.80, 15.26, 7.63, 12.20, 0.016, -0.016, -1.056, 18:40:55.803, 1590856855803
59, 5.58, 9.26, 9.54, 13.25, 0.016, -0.016, -1.056, 18:40:55.804, 1590856855804
60, 4.00, 10.32, 4.13, 7.79, 0.016, -0.016, -1.056, 18:40:55.804, 1590856855804
61, 2.13, 7.29, 8.10, 8.78, 0.016, -0.016, -1.056, 18:40:55.833, 1590856855833
62, 5.16, 8.74, 3.84, 7.43, 0.016, -0.016, -1.056, 18:40:55.833, 1590856855833
63, 3.37, 10.14, 6.90, 9.82, 0.016, -0.016, -1.056, 18:40:55.850, 1590856855850
64, 7.83, 11.19, 4.49, 9.94, 0.016, -0.016, -1.056, 18:40:55.850, 1590856855850
65, 7.40, 14.89, 4.11, 9.05, 0.016, -0.016, -1.056, 18:40:55.850, 1590856855850
66, 8.40, 8.85, 5.93, 5.88, 0.016, -0.016, -1.056, 18:40:55.850, 1590856855850
67, 6.41, 10.31, 9.38, 12.23, 0.016, -0.016, -1.056, 18:40:55.851, 1590856855851
68, 2.52, 9.31, 3.50, 6.65, 0.016, -0.016, -1.056, 18:40:55.851, 1590856855851
69, 11.14, 7.12, 10.56, 9.24, 0.016, -0.016, -1.056, 18:40:55.852, 1590856855852
70, 6.86, 13.19, 4.85, 10.48, 0.016, -0.016, -1.056, 18:40:55.852, 1590856855852
71, 5.73, 11.71, 4.77, 8.13, 0.016, -0.016, -1.056, 18:40:55.863, 1590856855863
72, 7.82, 8.53, 7.89, 7.76, 0.016, -0.016, -1.056, 18:40:55.863, 1590856855863
73, 7.32, 12.43, 5.13, 10.19, 0.016, -0.016, -1.056, 18:40:55.877, 1590856855877
74, 9.50, 11.25, 10.41, 7.95, 0.016, -0.016, -1.056, 18:40:55.877, 1590856855877
75, 7.01, 11.42, 4.11, 8.67, 0.016, -0.016, -1.056, 18:40:55.893, 1590856855893
76, 4.45, 8.49, 6.90, 6.28, 0.016, -0.016, -1.056, 18:40:55.893, 1590856855893
77, 4.34, 9.28, 7.17, 14.11, 0.016, -0.016, -1.056, 18:40:55.894, 1590856855894
78, 4.78, 12.78, 6.08, 14.60, 0.016, -0.016, -1.056, 18:40:55.894, 1590856855894
79, 9.50, 13.12, 7.27, 14.64, 0.016, -0.016, -1.056, 18:40:55.908, 1590856855908
80, 7.78, 8.42, 2.75, 3.01, 0.016, -0.016, -1.056, 18:40:55.908, 1590856855908
81, 7.18, 10.11, 8.97, 8.62, 0.016, -0.016, -1.056, 18:40:55.923, 1590856855923
82, 8.93, 12.15, 9.69, 16.76, 0.016, -0.016, -1.056, 18:40:55.923, 1590856855923
83, 9.62, 14.06, 10.41, 8.09, 0.016, -0.016, -1.056, 18:40:55.924, 1590856855924
84, 3.01, 11.55, 2.95, 7.29, 0.016, -0.016, -1.056, 18:40:55.924, 1590856855924
85, 1.67, 7.92, 6.47, 14.30, 0.016, -0.016, -1.056, 18:40:55.938, 1590856855938
86, 4.95, 8.34, 9.33, 13.30, 0.016, -0.016, -1.056, 18:40:55.938, 1590856855938
87, 10.64, 8.82, 6.82, 14.80, 0.016, -0.016, -1.056, 18:40:55.954, 1590856855954
88, 4.95, 10.12, 7.87, 2.22, 0.016, -0.016, -1.056, 18:40:55.954, 1590856855954
89, 7.17, 11.97, 9.21, 5.85, 0.016, -0.016, -1.056, 18:40:55.968, 1590856855968
90, 4.23, 9.09, 8.99, 8.52, 0.016, -0.016, -1.056, 18:40:55.968, 1590856855968
91, 10.45, 11.87, 5.81, 12.76, 0.016, -0.016, -1.056, 18:40:55.969, 1590856855969
92, 4.78, 2.96, 9.53, 7.70, 0.016, -0.016, -1.056, 18:40:55.969, 1590856855969
93, 6.14, 11.50, 10.38, 4.79, 0.016, -0.016, -1.056, 18:40:55.983, 1590856855983
94, 6.85, 12.93, 8.14, 21.39, 0.016, -0.016, -1.056, 18:40:55.983, 1590856855983
95, 9.19, 10.96, 7.34, 8.59, 0.016, -0.016, -1.056, 18:40:55.984, 1590856855984
96, 7.02, 11.34, 4.50, 6.66, 0.016, -0.016, -1.056, 18:40:55.984, 1590856855984
97, 4.59, 7.45, 2.93, 9.08, 0.016, -0.016, -1.056, 18:40:55.997, 1590856855997
98, 6.50, 9.41, 6.42, 12.44, 0.016, -0.016, -1.056, 18:40:55.997, 1590856855997
99, 5.53, 13.45, 4.73, 12.84, 0.016, -0.016, -1.056, 18:40:56.013, 1590856856013
100, 8.93, 13.18, 4.55, 6.94, 0.016, -0.016, -1.056, 18:40:56.013, 1590856856013
101, 5.17, 10.23, 7.02, 7.71, 0.016, -0.016, -1.056, 18:40:56.014, 1590856856014
102, 6.44, 14.33, 7.03, 13.83, 0.016, -0.016, -1.056, 18:40:56.014, 1590856856014
103, 7.86, 9.45, 6.95, 16.53, 0.016, -0.016, -1.056, 18:40:56.028, 1590856856028
104, 5.47, 6.60, 3.01, 1.52, 0.016, -0.016, -1.056, 18:40:56.028, 1590856856028
105, 4.71, 9.44, 7.28, 15.46, 0.016, -0.016, -1.056, 18:40:56.060, 1590856856060
106, 4.26, 11.31, 7.86, 12.60, 0.016, 0.000, -1.056, 18:40:56.060, 1590856856060
107, 7.69, 13.85, 7.58, 9.01, 0.016, 0.000, -1.056, 18:40:56.060, 1590856856060
108, 2.30, 10.22, 4.79, 13.46, 0.016, 0.000, -1.056, 18:40:56.060, 1590856856060
109, 6.06, 13.47, 5.13, 4.55, 0.016, 0.000, -1.056, 18:40:56.061, 1590856856061
110, 5.18, 11.99, 12.53, 13.46, 0.016, 0.000, -1.056, 18:40:56.061, 1590856856061
111, 8.50, 11.10, 8.30, 14.99, 0.016, 0.000, -1.056, 18:40:56.062, 1590856856062
112, 2.37, 8.93, 0.75, 3.51, 0.016, 0.000, -1.056, 18:40:56.062, 1590856856062
113, 1.68, 10.35, 6.30, 0.46, 0.016, 0.000, -1.056, 18:40:56.073, 1590856856073
114, 8.21, 11.65, 8.50, 7.54, 0.016, 0.000, -1.056, 18:40:56.073, 1590856856073
115, 10.04, 10.17, 9.94, 13.26, 0.016, 0.000, -1.056, 18:40:56.088, 1590856856088
116, 3.29, 8.29, 8.04, 4.25, 0.016, 0.000, -1.056, 18:40:56.088, 1590856856088
117, 2.23, 8.45, 6.24, 4.81, 0.016, 0.000, -1.056, 18:40:56.103, 1590856856103
118, 6.41, 9.63, 5.47, 11.46, 0.016, 0.000, -1.056, 18:40:56.103, 1590856856103
119, 11.69, 15.02, 7.26, 20.23, 0.016, 0.000, -1.056, 18:40:56.118, 1590856856118
120, 3.36, 6.25, 0.80, 5.59, 0.016, 0.000, -1.056, 18:40:56.118, 1590856856118
121, 3.56, 9.30, 6.83, 5.69, 0.016, 0.000, -1.056, 18:40:56.119, 1590856856119
122, 6.84, 9.71, 4.80, 9.99, 0.016, 0.000, -1.056, 18:40:56.119, 1590856856119
123, 12.15, 8.97, 11.95, 16.97, 0.016, 0.000, -1.056, 18:40:56.148, 1590856856148
124, 2.67, 10.86, 5.15, 9.06, 0.016, 0.000, -1.056, 18:40:56.148, 1590856856148
125, -0.37, 8.97, 2.77, 2.26, 0.016, 0.000, -1.056, 18:40:56.164, 1590856856164
126, 7.67, 14.40, 1.70, 7.31, 0.016, 0.000, -1.056, 18:40:56.164, 1590856856164
127, 14.79, 13.63, 11.98, 17.72, 0.016, 0.000, -1.056, 18:40:56.164, 1590856856164
128, 2.94, 9.84, 7.15, 8.07, 0.016, 0.000, -1.056, 18:40:56.164, 1590856856164
129, 5.38, 6.85, 1.67, 10.20, 0.016, 0.000, -1.056, 18:40:56.180, 1590856856180
130, 9.10, 12.86, 4.34, 12.00, 0.016, 0.000, -1.056, 18:40:56.180, 1590856856180
131, 9.18, 14.70, 9.19, 11.04, 0.016, 0.000, -1.056, 18:40:56.181, 1590856856181
132, 4.60, 11.05, 7.32, 7.64, 0.016, 0.000, -1.056, 18:40:56.181, 1590856856181
133, 2.49, 10.12, -0.01, 8.67, 0.016, 0.000, -1.056, 18:40:56.181, 1590856856181
134, 4.38, 14.36, 6.39, 8.09, 0.016, 0.000, -1.056, 18:40:56.181, 1590856856181
135, 12.71, 16.63, 20.44, 13.56, 0.016, 0.000, -1.056, 18:40:56.182, 1590856856182
136, 3.99, 10.82, 6.25, 9.41, 0.016, 0.000, -1.056, 18:40:56.182, 1590856856182
137, 1.61, 7.99, 3.31, 3.81, 0.016, 0.000, -1.056, 18:40:56.193, 1590856856193
138, 8.07, 12.21, 10.02, 14.31, 0.016, 0.000, -1.056, 18:40:56.193, 1590856856193
139, 16.89, 14.92, 16.28, 16.23, 0.016, 0.000, -1.056, 18:40:56.208, 1590856856208
140, 5.94, 12.62, 2.76, 9.69, 0.016, 0.000, -1.056, 18:40:56.208, 1590856856208
141, 0.73, 8.16, 4.10, 6.11, 0.016, 0.000, -1.056, 18:40:56.223, 1590856856223
142, 5.32, 11.04, 8.10, 13.36, 0.016, 0.000, -1.056, 18:40:56.223, 1590856856223
143, 14.43, 18.47, 12.54, 10.93, 0.016, 0.000, -1.056, 18:40:56.224, 1590856856224
144, 5.83, 6.01, 6.53, 7.76, 0.016, 0.000, -1.056, 18:40:56.224, 1590856856224
145, -1.35, 5.89, 0.34, 5.48, 0.016, 0.000, -1.056, 18:40:56.238, 1590856856238
146, 8.11, 10.10, 8.76, 9.18, 0.016, -0.016, -1.056, 18:40:56.238, 1590856856238
147, 18.83, 18.44, 12.32, 14.68, 0.016, -0.016, -1.056, 18:40:56.253, 1590856856253
148, 1.58, 3.93, 6.05, 11.99, 0.016, -0.016, -1.056, 18:40:56.253, 1590856856253
149, -0.88, 4.73, 1.75, 8.50, 0.016, -0.016, -1.056, 18:40:56.254, 1590856856254
150, 4.87, 8.26, 4.38, 8.46, 0.016, -0.016, -1.056, 18:40:56.254, 1590856856254
151, 15.46, 22.70, 19.94, 14.98, 0.016, -0.016, -1.056, 18:40:56.284, 1590856856284
152, 5.98, 9.91, 5.64, 3.78, 0.016, -0.016, -1.056, 18:40:56.284, 1590856856284
153, -0.76, 3.26, -1.07, 3.64, 0.016, -0.016, -1.056, 18:40:56.285, 1590856856285
154, 6.20, 7.60, 3.43, 9.64, 0.016, -0.016, -1.056, 18:40:56.285, 1590856856285
155, 13.60, 18.47, 15.67, 20.33, 0.016, -0.016, -1.056, 18:40:56.286, 1590856856286
156, 1.31, 13.55, 4.69, 8.72, 0.016, -0.016, -1.056, 18:40:56.286, 1590856856286
157, -3.03, -1.05, -1.54, 6.58, 0.016, -0.016, -1.056, 18:40:56.298, 1590856856298
158, 7.17, 9.34, 6.64, 19.81, 0.016, -0.016, -1.056, 18:40:56.298, 1590856856298
159, 16.42, 20.50, 16.51, 20.90, 0.016, -0.016, -1.056, 18:40:56.313, 1590856856313
160, 3.33, 11.33, 7.63, 2.40, 0.016, -0.016, -1.056, 18:40:56.313, 1590856856313
161, -3.96, 3.87, -3.73, 3.29, 0.016, -0.016, -1.056, 18:40:56.314, 1590856856314
162, 5.82, 8.36, 7.20, 8.41, 0.016, -0.016, -1.056, 18:40:56.314, 1590856856314
163, 19.76, 20.69, 22.51, 20.42, 0.016, -0.016, -1.056, 18:40:56.344, 1590856856344
164, 6.31, 6.43, 5.82, 8.14, 0.016, -0.016, -1.056, 18:40:56.344, 1590856856344
165, -7.49, -2.43, -0.22, -1.53, 0.016, -0.016, -1.056, 18:40:56.345, 1590856856345
166, 5.43, 8.76, 3.46, 7.49, 0.016, -0.016, -1.056, 18:40:56.345, 1590856856345
167, 15.85, 20.91, 18.77, 20.82, 0.016, -0.016, -1.056, 18:40:56.345, 1590856856345
168, 5.23, 9.80, -0.17, 7.57, 0.016, -0.016, -1.056, 18:40:56.345, 1590856856345
169, -3.88, -2.47, -1.39, 1.46, 0.016, -0.016, -1.056, 18:40:56.358, 1590856856358
170, 3.32, 12.70, 1.63, 9.86, 0.016, -0.016, -1.056, 18:40:56.358, 1590856856358
171, 21.55, 23.70, 17.49, 20.93, 0.016, -0.016, -1.056, 18:40:56.373, 1590856856373
172, 5.48, 9.91, 5.92, 3.62, 0.016, -0.016, -1.056, 18:40:56.373, 1590856856373
173, -6.44, -1.79, -5.10, -5.64, 0.016, -0.016, -1.056, 18:40:56.374, 1590856856374
174, 5.85, 10.28, 3.20, 7.10, 0.016, -0.016, -1.056, 18:40:56.374, 1590856856374
175, 18.75, 25.14, 21.12, 18.18, 0.016, -0.016, -1.056, 18:40:56.388, 1590856856388
176, 2.13, 1.38, 10.26, -66.28, 0.016, -0.016, -1.056, 18:40:56.388, 1590856856388
177, -3.93, 1.68, -1.26, -3.16, 0.016, -0.016, -1.056, 18:40:56.404, 1590856856404
178, 4.85, 7.51, 4.12, 10.00, 0.016, -0.016, -1.056, 18:40:56.404, 1590856856404
179, 16.67, 18.74, 16.29, 21.38, 0.016, -0.016, -1.056, 18:40:56.404, 1590856856404
180, 6.39, 8.60, 5.71, 7.94, 0.016, -0.016, -1.056, 18:40:56.404, 1590856856404
181, -4.28, 0.79, 1.81, 4.49, 0.016, -0.016, -1.056, 18:40:56.418, 1590856856418
182, 4.17, 7.23, 3.40, 9.50, 0.016, -0.016, -1.056, 18:40:56.418, 1590856856418
183, 15.93, 24.87, 25.33, 22.22, 0.016, -0.016, -1.056, 18:40:56.433, 1590856856433
184, 7.49, 9.01, 7.05, 7.07, 0.016, -0.016, -1.056, 18:40:56.433, 1590856856433
185, -2.43, 2.78, -2.39, 7.05, 0.016, -0.016, -1.056, 18:40:56.434, 1590856856434
186, 2.34, 11.33, 6.32, 16.10, 0.000, -0.016, -1.088, 18:40:56.434, 1590856856434
187, 19.64, 26.95, 19.84, 23.09, 0.000, -0.016, -1.088, 18:40:56.448, 1590856856448
188, 5.11, 10.79, -1.42, 10.22, 0.000, -0.016, -1.088, 18:40:56.448, 1590856856448
189, -6.12, -1.05, -0.51, 4.75, 0.000, -0.016, -1.088, 18:40:56.463, 1590856856463
190, 7.22, 13.02, 4.27, 13.13, 0.000, -0.016, -1.088, 18:40:56.463, 1590856856463
191, 22.73, 25.26, 17.00, 22.12, 0.000, -0.016, -1.088, 18:40:56.464, 1590856856464
192, 5.01, 13.01, 8.35, 22.56, 0.000, -0.016, -1.088, 18:40:56.464, 1590856856464
193, -5.67, 0.23, -3.00, 24.39, 0.000, -0.016, -1.088, 18:40:56.478, 1590856856478
194, 3.31, 5.81, 5.21, 8.49, 0.000, -0.016, -1.088, 18:40:56.478, 1590856856478
195, 22.63, 24.82, 19.67, 26.23, 0.000, -0.016, -1.088, 18:40:56.493, 1590856856493
196, 10.28, 10.91, 4.77, 6.78, 0.000, -0.016, -1.088, 18:40:56.493, 1590856856493
197, -11.50, -1.11, -5.52, -7.06, 0.000, -0.016, -1.088, 18:40:56.494, 1590856856494
198, 2.02, 4.20, 4.90, 9.76, 0.000, -0.016, -1.088, 18:40:56.494, 1590856856494
199, 26.70, 24.93, 24.84, 24.93, 0.000, -0.016, -1.088, 18:40:56.508, 1590856856508
200, 4.25, 7.73, 2.43, 6.95, 0.000, -0.016, -1.088, 18:40:56.508, 1590856856508
0, -4.29, -0.45, -2.24, -7.29, 0.000, -0.016, -1.088, 18:40:56.509, 1590856856509
1, 5.47, 8.61, 7.62, 15.74, 0.000, -0.016, -1.088, 18:40:56.524, 1590856856524
2, 21.12, 20.18, 21.50, 24.57, 0.000, -0.016, -1.088, 18:40:56.524, 1590856856524
3, 4.52, 14.45, 10.60, 12.40, 0.000, -0.016, -1.088, 18:40:56.555, 1590856856555
4, -7.46, -2.41, -2.07, -0.39, 0.000, -0.016, -1.088, 18:40:56.555, 1590856856555
5, 2.08, 10.38, -0.32, 7.77, 0.000, -0.016, -1.088, 18:40:56.555, 1590856856555
6, 21.25, 25.02, 17.33, 26.32, 0.016, -0.016, -1.072, 18:40:56.555, 1590856856555
7, 10.25, 11.42, 4.46, 9.76, 0.016, -0.016, -1.072, 18:40:56.556, 1590856856556
8, -5.03, -0.05, -3.81, -2.04, 0.016, -0.016, -1.072, 18:40:56.556, 1590856856556
9, 2.17, 6.64, 6.84, 6.40, 0.016, -0.016, -1.072, 18:40:56.557, 1590856856557
10, 21.77, 23.57, 22.24, 21.70, 0.016, -0.016, -1.072, 18:40:56.557, 1590856856557
11, 8.63, 9.74, 3.52, 5.18, 0.016, -0.016, -1.072, 18:40:56.568, 1590856856568
12, -6.06, 2.11, -7.61, -1.37, 0.016, -0.016, -1.072, 18:40:56.568, 1590856856568
13, 3.05, 10.46, 10.16, 9.01, 0.016, -0.016, -1.072, 18:40:56.583, 1590856856583
14, 21.94, 27.03, 21.39, 25.32, 0.016, -0.016, -1.072, 18:40:56.583, 1590856856583
15, 7.18, 15.48, 7.58, 12.33, 0.016, -0.016, -1.072, 18:40:56.598, 1590856856598
16, -4.34, -3.26, -5.39, -1.56, 0.016, -0.016, -1.072, 18:40:56.598, 1590856856598
17, 1.81, 13.52, 4.02, 11.05, 0.016, -0.016, -1.072, 18:40:56.599, 1590856856599
18, 16.98, 27.85, 18.59, 20.98, 0.016, -0.016, -1.072, 18:40:56.599, 1590856856599
19, 10.43, 11.61, 5.37, 6.60, 0.016, -0.016, -1.072, 18:40:56.613, 1590856856613
20, -6.45, -5.20, -1.04, -1.91, 0.016, -0.016, -1.072, 18:40:56.613, 1590856856613
21, 5.55, 6.99, 2.79, 9.16, 0.016, -0.016, -1.072, 18:40:56.628, 1590856856628
22, 19.79, 25.56, 17.92, 20.57, 0.016, -0.016, -1.072, 18:40:56.628, 1590856856628
23, 9.14, 15.19, 12.14, 7.89, 0.016, -0.016, -1.072, 18:40:56.629, 1590856856629
24, -7.29, -1.31, -2.51, -8.26, 0.016, -0.016, -1.072, 18:40:56.629, 1590856856629
25, -0.46, 6.65, 7.06, 7.85, 0.016, -0.016, -1.072, 18:40:56.643, 1590856856643
26, 20.72, 21.32, 22.60, 15.93, 0.032, -0.064, -1.104, 18:40:56.643, 1590856856643
27, 7.84, 14.05, 9.10, 13.06, 0.032, -0.064, -1.104, 18:40:56.675, 1590856856675
28, -7.39, 7.93, 0.45, 3.89, 0.032, -0.064, -1.104, 18:40:56.675, 1590856856675
29, 3.34, 7.68, 6.19, 1.80, 0.032, -0.064, -1.104, 18:40:56.675, 1590856856675
30, 22.47, 26.26, 19.87, 28.19, 0.032, -0.064, -1.104, 18:40:56.675, 1590856856675
31, 6.82, 10.48, 11.34, 16.55, 0.032, -0.064, -1.104, 18:40:56.676, 1590856856676
32, -8.51, -0.57, -1.29, 3.11, 0.032, -0.064, -1.104, 18:40:56.676, 1590856856676
33, -1.06, 4.55, 1.40, 10.53, 0.032, -0.064, -1.104, 18:40:56.677, 1590856856677
34, 24.07, 22.75, 20.61, 19.99, 0.032, -0.064, -1.104, 18:40:56.677, 1590856856677
35, 8.77, 11.13, 6.71, 13.48, 0.032, -0.064, -1.104, 18:40:56.688, 1590856856688
36, -6.64, 3.58, -3.49, 0.03, 0.032, -0.064, -1.104, 18:40:56.688, 1590856856688
37, 1.65, 8.66, 2.34, 4.16, 0.032, -0.064, -1.104, 18:40:56.703, 1590856856703
38, 24.44, 29.32, 14.76, 24.52, 0.032, -0.064, -1.104, 18:40:56.703, 1590856856703
39, 9.56, 13.34, 6.94, 14.45, 0.032, -0.064, -1.104, 18:40:56.718, 1590856856718
40, -5.55, 0.60, -3.90, -0.51, 0.032, -0.064, -1.104, 18:40:56.718, 1590856856718
41, -0.95, 8.40, 5.49, 11.95, 0.032, -0.064, -1.104, 18:40:56.719, 1590856856719
42, 20.83, 25.32, 20.80, 21.99, 0.032, -0.064, -1.104, 18:40:56.719, 1590856856719
43, 11.22, 15.71, 5.68, 11.60, 0.032, -0.064, -1.104, 18:40:56.733, 1590856856733
44, -8.80, 1.96, -11.74, 4.13, 0.032, -0.064, -1.104, 18:40:56.733, 1590856856733
45, 3.32, 8.82, 4.65, 15.14, 0.032, -0.064, -1.104, 18:40:56.748, 1590856856748
46, 22.69, 23.16, 21.65, 34.97, 0.016, -0.032, -1.120, 18:40:56.748, 1590856856748
47, 10.35, 9.40, 6.60, 23.99, 0.016, -0.032, -1.120, 18:40:56.749, 1590856856749
48, -8.18, 0.79, -2.88, 14.40, 0.016, -0.032, -1.120, 18:40:56.749, 1590856856749
49, 5.51, 7.55, 1.16, 44.28, 0.016, -0.032, -1.120, 18:40:56.763, 1590856856763
50, 22.58, 25.12, 14.33, 52.17, 0.016, -0.032, -1.120, 18:40:56.763, 1590856856763
51, 8.08, 15.27, 8.76, 28.14, 0.016, -0.032, -1.120, 18:40:56.779, 1590856856779
52, -8.24, -2.21, -2.84, 11.54, 0.016, -0.032, -1.120, 18:40:56.779, 1590856856779
53, 0.07, 9.65, 5.67, 8.64, 0.016, -0.032, -1.120, 18:40:56.779, 1590856856779
54, 23.27, 25.22, 15.70, 28.29, 0.016, -0.032, -1.120, 18:40:56.779, 1590856856779
55, 12.00, 11.06, 8.11, 11.33, 0.016, -0.032, -1.120, 18:40:56.809, 1590856856809
56, -10.21, 3.12, -9.56, -8.06, 0.016, -0.032, -1.120, 18:40:56.809, 1590856856809
57, 6.12, 4.11, 8.66, 6.74, 0.016, -0.032, -1.120, 18:40:56.809, 1590856856809
58, 19.28, 19.90, 21.40, 32.24, 0.016, -0.032, -1.120, 18:40:56.809, 1590856856809
59, 6.43, 12.57, 4.50, 23.33, 0.016, -0.032, -1.120, 18:40:56.810, 1590856856810
60, -7.32, -3.81, -2.03, 8.91, 0.016, -0.032, -1.120, 18:40:56.810, 1590856856810
61, 3.55, 8.09, 6.14, 25.72, 0.016, -0.032, -1.120, 18:40:56.823, 1590856856823
62, 23.40, 24.89, 24.89, 38.63, 0.016, -0.032, -1.120, 18:40:56.823, 1590856856823
63, 7.41, 11.12, 5.73, 19.68, 0.016, -0.032, -1.120, 18:40:56.838, 1590856856838
64, -3.93, -6.59, -8.99, 3.76, 0.016, -0.032, -1.120, 18:40:56.838, 1590856856838
65, 3.12, 4.34, 6.72, 11.67, 0.016, -0.032, -1.120, 18:40:56.839, 1590856856839
66, 21.28, 25.66, 21.34, 16.05, 0.000, 0.016, -1.088, 18:40:56.839, 1590856856839
67, 12.38, 15.42, 13.01, 4.26, 0.000, 0.016, -1.088, 18:40:56.853, 1590856856853
68, -8.03, -0.11, -6.00, -7.31, 0.000, 0.016, -1.088, 18:40:56.853, 1590856856853
69, 4.32, 10.30, 1.95, 7.10, 0.000, 0.016, -1.088, 18:40:56.869, 1590856856869
70, 25.84, 28.74, 23.37, 34.61, 0.000, 0.016, -1.088, 18:40:56.869, 1590856856869
71, 7.43, 16.57, 12.30, 10.17, 0.000, 0.016, -1.088, 18:40:56.869, 1590856856869
72, -5.86, -0.79, -12.11, -9.80, 0.000, 0.016, -1.088, 18:40:56.869, 1590856856869
73, 3.51, 4.89, 1.45, 0.26, 0.000, 0.016, -1.088, 18:40:56.900, 1590856856900
74, 22.55, 25.72, 20.43, 30.32, 0.000, 0.016, -1.088, 18:40:56.900, 1590856856900
75, 8.93, 12.33, 9.48, 17.49, 0.000, 0.016, -1.088, 18:40:56.901, 1590856856901
76, -6.44, -3.16, -7.88, -4.87, 0.000, 0.016, -1.088, 18:40:56.901, 1590856856901
77, 0.94, 1.37, 3.72, -0.33, 0.000, 0.016, -1.088, 18:40:56.901, 1590856856901
78, 25.33, 26.74, 20.50, 21.97, 0.000, 0.016, -1.088, 18:40:56.901, 1590856856901
79, 9.23, 15.36, 4.80, 4.02, 0.000, 0.016, -1.088, 18:40:56.913, 1590856856913
80, -9.14, -1.22, -12.17, -25.61, 0.000, 0.016, -1.088, 18:40:56.913, 1590856856913
81, -1.66, 5.76, -1.58, -19.92, 0.000, 0.016, -1.088, 18:40:56.928, 1590856856928
82, 23.83, 30.01, 21.95, 26.96, 0.000, 0.016, -1.088, 18:40:56.928, 1590856856928
83, 2.98, 12.92, 8.45, 8.99, 0.000, 0.016, -1.088, 18:40:56.929, 1590856856929
84, -12.94, -3.68, -14.99, -8.42, 0.000, 0.016, -1.088, 18:40:56.929, 1590856856929
85, 6.28, 4.86, 3.02, 7.26, 0.000, 0.016, -1.088, 18:40:56.959, 1590856856959
86, 22.00, 26.31, 18.86, 41.61, -0.192, 0.064, -1.104, 18:40:56.959, 1590856856959
87, 6.95, 12.89, 4.76, 30.37, -0.192, 0.064, -1.104, 18:40:56.960, 1590856856960
88, -6.40, -7.06, -12.38, 1.26, -0.192, 0.064, -1.104, 18:40:56.960, 1590856856960
89, 2.11, 4.15, 1.76, -2.93, -0.192, 0.064, -1.104, 18:40:56.960, 1590856856960
90, 21.15, 24.19, 24.65, 37.13, -0.192, 0.064, -1.104, 18:40:56.960, 1590856856960
91, 6.92, 14.82, 13.26, 6.21, -0.192, 0.064, -1.104, 18:40:56.973, 1590856856973
92, -14.39, -4.47, -7.40, -4.73, -0.192, 0.064, -1.104, 18:40:56.973, 1590856856973
93, 0.51, 3.05, 2.27, -4.13, -0.192, 0.064, -1.104, 18:40:56.988, 1590856856988
94, 23.62, 27.48, 21.93, 27.92, -0.192, 0.064, -1.104, 18:40:56.988, 1590856856988
95, 8.22, 14.36, 8.60, 13.98, -0.192, 0.064, -1.104, 18:40:56.989, 1590856856989
96, -11.12, -5.94, -5.07, -11.15, -0.192, 0.064, -1.104, 18:40:56.989, 1590856856989
97, 2.41, 8.78, 3.48, 7.87, -0.192, 0.064, -1.104, 18:40:57.002, 1590856857002
98, 21.44, 23.29, 18.79, 28.94, -0.192, 0.064, -1.104, 18:40:57.002, 1590856857002
99, 9.70, 12.48, 11.76, 12.70, -0.192, 0.064, -1.104, 18:40:57.018, 1590856857018
100, -6.35, -3.72, -9.79, -6.30, -0.192, 0.064, -1.104, 18:40:57.018, 1590856857018
101, 2.54, 5.09, -0.07, 6.21, -0.192, 0.064, -1.104, 18:40:57.019, 1590856857019
102, 23.31, 28.16, 19.53, 30.19, -0.192, 0.064, -1.104, 18:40:57.019, 1590856857019
103, 14.13, 8.57, 10.75, 11.84, -0.192, 0.064, -1.104, 18:40:57.033, 1590856857033
104, -12.17, -5.42, -8.44, -13.79, -0.192, 0.064, -1.104, 18:40:57.033, 1590856857033
105, 1.21, 4.22, 0.88, -2.05, -0.192, 0.064, -1.104, 18:40:57.049, 1590856857049
106, 23.45, 33.34, 21.32, 27.59, -0.128, 0.144, -1.280, 18:40:57.049, 1590856857049
107, 7.38, 12.82, 6.42, 7.31, -0.128, 0.144, -1.280, 18:40:57.049, 1590856857049
108, -7.23, -7.27, -9.33, -5.86, -0.128, 0.144, -1.280, 18:40:57.049, 1590856857049
109, 2.43, 3.88, 3.27, -2.49, -0.128, 0.144, -1.280, 18:40:57.063, 1590856857063
110, 17.48, 20.12, 21.16, 23.81, -0.128, 0.144, -1.280, 18:40:57.063, 1590856857063
111, 9.05, 15.40, 9.76, 8.39, -0.128, 0.144, -1.280, 18:40:57.078, 1590856857078
112, -12.45, -1.45, -2.50, -6.31, -0.128, 0.144, -1.280, 18:40:57.078, 1590856857078
113, 3.45, 3.38, 2.07, 4.43, -0.128, 0.144, -1.280, 18:40:57.079, 1590856857079
114, 23.43, 22.73, 23.75, 24.47, -0.128, 0.144, -1.280, 18:40:57.079, 1590856857079
115, 10.32, 9.11, 7.93, 13.83, -0.128, 0.144, -1.280, 18:40:57.093, 1590856857093
116, -9.43, -6.69, -8.95, -12.26, -0.128, 0.144, -1.280, 18:40:57.093, 1590856857093
117, 3.56, 10.37, 5.62, 1.65, -0.128, 0.144, -1.280, 18:40:57.109, 1590856857109
118, 19.99, 29.04, 19.19, 22.14, -0.128, 0.144, -1.280, 18:40:57.109, 1590856857109
119, 6.39, 10.26, 13.02, 15.17, -0.128, 0.144, -1.280, 18:40:57.109, 1590856857109
120, -5.77, -4.76, -3.96, -4.18, -0.128, 0.144, -1.280, 18:40:57.109, 1590856857109
121, -0.83, 5.91, 2.90, 7.19, -0.128, 0.144, -1.280, 18:40:57.123, 1590856857123
122, 18.58, 23.92, 20.46, 20.95, -0.128, 0.144, -1.280, 18:40:57.123, 1590856857123
123, 16.31, 17.35, 7.36, 11.04, -0.128, 0.144, -1.280, 18:40:57.138, 1590856857138
124, -6.73, 2.89, -2.86, -4.75, -0.128, 0.144, -1.280, 18:40:57.138, 1590856857138
125, -2.33, 3.84, 9.36, 5.17, -0.128, 0.144, -1.280, 18:40:57.139, 1590856857139
126, 16.68, 23.70, 17.83, 22.58, -0.096, 0.288, -1.168, 18:40:57.139, 1590856857139
127, 7.11, 13.73, 11.77, 11.69, -0.096, 0.288, -1.168, 18:40:57.153, 1590856857153
128, -7.15, 0.50, -5.74, -11.04, -0.096, 0.288, -1.168, 18:40:57.153, 1590856857153
129, 3.85, 9.78, 0.45, 1.58, -0.096, 0.288, -1.168, 18:40:57.168, 1590856857168
130, 21.51, 20.98, 16.16, 20.39, -0.096, 0.288, -1.168, 18:40:57.168, 1590856857168
131, 11.00, 14.63, 12.34, 11.40, -0.096, 0.288, -1.168, 18:40:57.169, 1590856857169
132, -8.44, -4.28, -5.95, -10.59, -0.096, 0.288, -1.168, 18:40:57.170, 1590856857170
133, 0.97, 6.31, 1.20, 0.75, -0.096, 0.288, -1.168, 18:40:57.183, 1590856857183
134, 18.26, 20.48, 18.63, 20.16, -0.096, 0.288, -1.168, 18:40:57.183, 1590856857183
135, 14.13, 16.77, 14.21, 15.14, -0.096, 0.288, -1.168, 18:40:57.198, 1590856857198
136, -4.03, 1.53, -1.38, -0.98, -0.096, 0.288, -1.168, 18:40:57.198, 1590856857198
137, -1.46, 3.29, 1.66, 8.32, -0.096, 0.288, -1.168, 18:40:57.199, 1590856857199
138, 17.97, 21.26, 14.79, 20.67, -0.096, 0.288, -1.168, 18:40:57.199, 1590856857199
139, 13.48, 14.80, 14.92, 17.00, -0.096, 0.288, -1.168, 18:40:57.213, 1590856857213
140, -6.26, -1.33, -2.16, -4.90, -0.096, 0.288, -1.168, 18:40:57.213, 1590856857213
141, 1.74, 5.18, 2.22, 2.79, -0.096, 0.288, -1.168, 18:40:57.228, 1590856857228
142, 19.67, 22.81, 20.46, 20.89, -0.096, 0.288, -1.168, 18:40:57.228, 1590856857228
143, 8.61, 17.99, 8.75, 14.93, -0.096, 0.288, -1.168, 18:40:57.229, 1590856857229
144, -6.93, 2.21, -0.50, -6.65, -0.096, 0.288, -1.168, 18:40:57.229, 1590856857229
145, 2.70, 6.21, 6.40, 2.83, -0.096, 0.288, -1.168, 18:40:57.243, 1590856857243
146, 15.00, 21.16, 17.51, 18.79, -0.048, 0.272, -1.120, 18:40:57.243, 1590856857243
147, 12.00, 13.11, 6.33, 10.44, -0.048, 0.272, -1.120, 18:40:57.259, 1590856857259
148, -10.69, 1.84, -2.17, -1.94, -0.048, 0.272, -1.120, 18:40:57.259, 1590856857259
149, -1.83, 5.37, 5.25, 1.73, -0.048, 0.272, -1.120, 18:40:57.260, 1590856857260
150, 14.88, 21.19, 14.99, 26.27, -0.048, 0.272, -1.120, 18:40:57.260, 1590856857260
151, 10.16, 16.61, 7.02, 11.38, -0.048, 0.272, -1.120, 18:40:57.272, 1590856857272
152, -4.52, -2.99, -4.46, 1.44, -0.048, 0.272, -1.120, 18:40:57.272, 1590856857272
153, -0.28, 5.98, 1.77, 0.12, -0.048, 0.272, -1.120, 18:40:57.288, 1590856857288
154, 16.20, 20.52, 17.97, 20.44, -0.048, 0.272, -1.120, 18:40:57.288, 1590856857288
155, 12.54, 14.14, 9.47, 4.78, -0.048, 0.272, -1.120, 18:40:57.289, 1590856857289
156, -3.62, -0.89, -2.68, -1.72, -0.048, 0.272, -1.120, 18:40:57.289, 1590856857289
157, 1.67, 2.41, 1.70, 1.29, -0.048, 0.272, -1.120, 18:40:57.303, 1590856857303
158, 15.57, 21.64, 8.57, 16.20, -0.048, 0.272, -1.120, 18:40:57.303, 1590856857303
159, 9.92, 15.58, 11.77, 12.67, -0.048, 0.272, -1.120, 18:40:57.318, 1590856857318
160, -5.44, 0.81, -2.34, -5.48, -0.048, 0.272, -1.120, 18:40:57.318, 1590856857318
161, 1.12, 8.24, 2.33, 0.40, -0.048, 0.272, -1.120, 18:40:57.319, 1590856857319
162, 14.36, 22.88, 16.69, 19.97, -0.048, 0.272, -1.120, 18:40:57.319, 1590856857319
163, 8.85, 13.25, 10.79, 13.15, -0.048, 0.272, -1.120, 18:40:57.333, 1590856857333
164, -5.25, 2.65, -2.67, -0.47, -0.048, 0.272, -1.120, 18:40:57.333, 1590856857333
165, 3.12, 7.55, 1.25, 12.26, -0.048, 0.272, -1.120, 18:40:57.365, 1590856857365
166, 19.06, 21.35, 14.79, 21.71, -0.048, 0.272, -1.056, 18:40:57.365, 1590856857365
167, 12.23, 15.14, 14.10, 11.76, -0.048, 0.272, -1.056, 18:40:57.365, 1590856857365
168, -3.10, -0.20, -1.64, -1.80, -0.048, 0.272, -1.056, 18:40:57.365, 1590856857365
169, 3.64, 5.40, 1.85, 1.92, -0.048, 0.272, -1.056, 18:40:57.366, 1590856857366
170, 15.52, 21.99, 14.19, 19.85, -0.048, 0.272, -1.056, 18:40:57.366, 1590856857366
171, 9.56, 21.03, 9.39, 14.77, -0.048, 0.272, -1.056, 18:40:57.367, 1590856857367
172, -3.47, -0.71, -0.06, 1.08, -0.048, 0.272, -1.056, 18:40:57.367, 1590856857367
173, -0.88, 0.00, 5.21, 4.11, -0.048, 0.272, -1.056, 18:40:57.378, 1590856857378
174, 20.66, 21.90, 21.42, 18.41, -0.048, 0.272, -1.056, 18:40:57.378, 1590856857378
175, 11.73, 18.31, 14.65, 16.36, -0.048, 0.272, -1.056, 18:40:57.392, 1590856857392
176, -7.79, -1.61, 4.02, -1.78, -0.048, 0.272, -1.056, 18:40:57.392, 1590856857392
177, -0.42, 5.49, 5.93, 6.52, -0.048, 0.272, -1.056, 18:40:57.408, 1590856857408
178, 15.92, 16.86, 18.42, 16.41, -0.048, 0.272, -1.056, 18:40:57.408, 1590856857408
179, 10.95, 17.58, 12.51, 12.29, -0.048, 0.272, -1.056, 18:40:57.409, 1590856857409
180, -7.24, 0.05, -4.42, -2.28, -0.048, 0.272, -1.056, 18:40:57.409, 1590856857409
181, 2.30, 4.14, 3.09, 1.34, -0.048, 0.272, -1.056, 18:40:57.455, 1590856857455
182, 17.38, 13.56, 14.97, 16.92, -0.048, 0.272, -1.056, 18:40:57.455, 1590856857455
183, 15.24, 19.55, 11.06, 15.50, -0.048, 0.272, -1.056, 18:40:57.456, 1590856857456
184, -0.81, -0.33, 0.04, -1.70, -0.048, 0.272, -1.056, 18:40:57.456, 1590856857456
185, 2.84, 1.80, 2.73, 3.75, -0.048, 0.272, -1.056, 18:40:57.457, 1590856857457
186, 14.76, 17.56, 12.33, 18.05, 0.064, 0.224, -1.072, 18:40:57.457, 1590856857457
187, 10.73, 15.24, 15.18, 12.15, 0.064, 0.224, -1.072, 18:40:57.457, 1590856857457
188, -5.26, 4.07, 0.78, -0.07, 0.064, 0.224, -1.072, 18:40:57.457, 1590856857457
189, -1.41, 2.93, 4.36, 3.56, 0.064, 0.224, -1.072, 18:40:57.468, 1590856857468
190, 16.54, 21.70, 16.90, 16.92, 0.064, 0.224, -1.072, 18:40:57.468, 1590856857468
191, 14.08, 16.03, 11.15, 15.92, 0.064, 0.224, -1.072, 18:40:57.469, 1590856857469
192, -4.24, -1.42, -3.49, 0.11, 0.064, 0.224, -1.072, 18:40:57.469, 1590856857469
193, 1.26, 5.39, 1.03, 5.91, 0.064, 0.224, -1.072, 18:40:57.483, 1590856857483
194, 17.49, 19.72, 11.89, 17.09, 0.064, 0.224, -1.072, 18:40:57.483, 1590856857483
195, 18.89, 22.22, 16.07, 12.61, 0.064, 0.224, -1.072, 18:40:57.499, 1590856857499
196, -0.07, -0.34, -1.40, 1.80, 0.064, 0.224, -1.072, 18:40:57.499, 1590856857499
197, 1.41, 7.47, 0.20, 5.53, 0.064, 0.224, -1.072, 18:40:57.499, 1590856857499
198, 14.55, 21.79, 14.54, 21.94, 0.064, 0.224, -1.072, 18:40:57.499, 1590856857499
199, -1.98, 3.46, -0.49, 5.30, 0.064, 0.224, -1.072, 18:40:57.513, 1590856857513
200, -28.01, -15.81, -19.57, -19.30, 0.064, 0.224, -1.072, 18:40:57.513, 1590856857513
0, 6.56, 10.80, 3.23, 8.13, 0.064, 0.224, -1.072, 18:40:57.514, 1590856857514
1, 24.26, 22.45, 17.17, 20.77, 0.064, 0.224, -1.072, 18:40:57.528, 1590856857528
2, 14.86, 15.55, 13.15, 19.40, 0.064, 0.224, -1.072, 18:40:57.528, 1590856857528
3, -3.72, -2.24, -1.96, 0.56, 0.064, 0.224, -1.072, 18:40:57.543, 1590856857543
4, -3.15, 10.66, 1.88, 5.25, 0.064, 0.224, -1.072, 18:40:57.543, 1590856857543
5, 22.36, 23.19, 26.24, 21.47, 0.064, 0.224, -1.072, 18:40:57.544, 1590856857544
6, 17.94, 17.86, 12.92, 14.42, 0.144, 0.144, -0.816, 18:40:57.544, 1590856857544
7, -7.01, 0.56, -6.82, -4.71, 0.144, 0.144, -0.816, 18:40:57.557, 1590856857557
8, -2.88, 2.92, 5.08, 2.15, 0.144, 0.144, -0.816, 18:40:57.557, 1590856857557
9, 19.22, 21.92, 22.32, 22.70, 0.144, 0.144, -0.816, 18:40:57.573, 1590856857573
10, 12.71, 21.73, 15.86, 7.46, 0.144, 0.144, -0.816, 18:40:57.573, 1590856857573
11, -8.02, -5.17, -11.91, -10.16, 0.144, 0.144, -0.816, 18:40:57.574, 1590856857574
12, -2.11, 5.34, -0.21, 3.34, 0.144, 0.144, -0.816, 18:40:57.574, 1590856857574
13, 21.72, 25.53, 21.15, 25.86, 0.144, 0.144, -0.816, 18:40:57.588, 1590856857588
14, 15.48, 16.57, 10.37, 13.81, 0.144, 0.144, -0.816, 18:40:57.588, 1590856857588
15, -9.62, -3.46, -2.70, -6.42, 0.144, 0.144, -0.816, 18:40:57.603, 1590856857603
16, -2.45, 4.41, 2.81, 8.96, 0.144, 0.144, -0.816, 18:40:57.603, 1590856857603
17, 22.52, 24.40, 25.42, 23.16, 0.144, 0.144, -0.816, 18:40:57.604, 1590856857604
18, 12.73, 16.32, 13.46, 19.06, 0.144, 0.144, -0.816, 18:40:57.604, 1590856857604
19, -8.44, 1.04, -5.33, -10.24, 0.144, 0.144, -0.816, 18:40:57.618, 1590856857618
20, -2.10, 2.91, 1.57, -0.38, 0.144, 0.144, -0.816, 18:40:57.618, 1590856857618
21, 20.34, 22.85, 20.34, 26.44, 0.144, 0.144, -0.816, 18:40:57.634, 1590856857634
22, 18.14, 18.42, 13.34, 18.65, 0.144, 0.144, -0.816, 18:40:57.634, 1590856857634
23, -8.20, -2.29, -9.25, -5.63, 0.144, 0.144, -0.816, 18:40:57.635, 1590856857635
24, 0.65, 1.55, -0.56, 7.99, 0.144, 0.144, -0.816, 18:40:57.635, 1590856857635
25, 19.81, 25.81, 20.33, 31.50, 0.144, 0.144, -0.816, 18:40:57.648, 1590856857648
26, 14.54, 15.56, 13.90, 16.10, 0.144, -0.096, -0.944, 18:40:57.648, 1590856857648
27, -7.30, -4.85, -6.32, -5.12, 0.144, -0.096, -0.944, 18:40:57.663, 1590856857663
28, -4.92, 5.63, 1.66, 5.69, 0.144, -0.096, -0.944, 18:40:57.663, 1590856857663
29, 20.82, 25.63, 17.99, 23.25, 0.144, -0.096, -0.944, 18:40:57.664, 1590856857664
30, 13.35, 19.72, 11.34, 15.03, 0.144, -0.096, -0.944, 18:40:57.664, 1590856857664
31, -10.76, -3.54, -10.86, -2.65, 0.144, -0.096, -0.944, 18:40:57.678, 1590856857678
32, -6.99, 5.33, 1.83, -2.07, 0.144, -0.096, -0.944, 18:40:57.678, 1590856857678
33, 24.14, 26.76, 21.86, 22.40, 0.144, -0.096, -0.944, 18:40:57.693, 1590856857693
34, 14.47, 17.23, 13.22, 16.97, 0.144, -0.096, -0.944, 18:40:57.693, 1590856857693
35, -13.65, -2.32, -6.57, -1.73, 0.144, -0.096, -0.944, 18:40:57.694, 1590856857694
36, -0.10, 1.54, 0.90, 2.61, 0.144, -0.096, -0.944, 18:40:57.694, 1590856857694
37, 24.86, 28.51, 19.48, 23.63, 0.144, -0.096, -0.944, 18:40:57.708, 1590856857708
38, 12.06, 17.61, 15.25, 19.20, 0.144, -0.096, -0.944, 18:40:57.708, 1590856857708
39, -7.51, -1.52, -5.17, -1.48, 0.144, -0.096, -0.944, 18:40:57.723, 1590856857723
40, 1.08, 5.39, 4.43, 4.43, 0.144, -0.096, -0.944, 18:40:57.723, 1590856857723
41, 23.93, 26.75, 21.58, 23.90, 0.144, -0.096, -0.944, 18:40:57.724, 1590856857724
42, 14.79, 22.69, 15.58, 14.99, 0.144, -0.096, -0.944, 18:40:57.724, 1590856857724
43, -11.18, -3.58, -4.14, -2.34, 0.144, -0.096, -0.944, 18:40:57.738, 1590856857738
44, 5.64, 8.48, -1.55, 3.88, 0.144, -0.096, -0.944, 18:40:57.738, 1590856857738
45, 27.37, 30.98, 24.82, 28.78, 0.144, -0.096, -0.944, 18:40:57.753, 1590856857753
46, 14.92, 21.42, 14.47, 21.58, 0.112, -0.688, -0.400, 18:40:57.753, 1590856857753
47, -1.11, -0.69, -3.53, -1.67, 0.112, -0.688, -0.400, 18:40:57.754, 1590856857754
48, 0.45, 11.83, 0.32, 4.71, 0.112, -0.688, -0.400, 18:40:57.754, 1590856857754
49, 28.90, 28.12, 19.56, 19.18, 0.112, -0.688, -0.400, 18:40:57.768, 1590856857768
50, 12.97, 25.87, 29.79, 15.14, 0.112, -0.688, -0.400, 18:40:57.768, 1590856857768
51, -11.41, 4.41, -53.47, -3.09, 0.112, -0.688, -0.400, 18:40:57.784, 1590856857784
52, 0.41, 14.62, -52.10, 5.91, 0.112, -0.688, -0.400, 18:40:57.784, 1590856857784
53, 18.73, 29.58, 42.09, 23.56, 0.112, -0.688, -0.400, 18:40:57.784, 1590856857784
54, 11.81, 9.98, 9.74, 24.55, 0.112, -0.688, -0.400, 18:40:57.784, 1590856857784
55, -5.61, -7.89, 0.10, 7.67, 0.112, -0.688, -0.400, 18:40:57.799, 1590856857799
56, 2.35, -0.85, 6.25, 15.38, 0.112, -0.688, -0.400, 18:40:57.799, 1590856857799
57, 17.44, 26.64, 20.29, 24.57, 0.112, -0.688, -0.400, 18:40:57.813, 1590856857813
58, 7.91, 18.47, 18.00, 16.69, 0.112, -0.688, -0.400, 18:40:57.813, 1590856857813
59, -9.31, 1.18, -6.09, -1.00, 0.112, -0.688, -0.400, 18:40:57.814, 1590856857814
60, -1.99, 4.07, 2.12, 2.22, 0.112, -0.688, -0.400, 18:40:57.814, 1590856857814
61, 14.06, 18.99, 22.60, 19.72, 0.112, -0.688, -0.400, 18:40:57.828, 1590856857828
62, 7.02, 13.11, 14.89, 15.64, 0.112, -0.688, -0.400, 18:40:57.828, 1590856857828
63, -5.63, 1.89, -3.60, 0.90, 0.112, -0.688, -0.400, 18:40:57.844, 1590856857844
64, 1.95, 8.93, 6.42, 1.92, 0.112, -0.688, -0.400, 18:40:57.844, 1590856857844
65, 18.33, 24.38, 20.09, 18.57, 0.112, -0.688, -0.400, 18:40:57.844, 1590856857844
66, 13.15, 14.76, 16.61, 13.41, -0.160, -0.816, 0.288, 18:40:57.844, 1590856857844
67, -6.73, 1.23, -1.84, -5.06, -0.160, -0.816, 0.288, 18:40:57.858, 1590856857858
68, -2.64, 6.25, 2.83, -0.11, -0.160, -0.816, 0.288, 18:40:57.858, 1590856857858
69, 17.08, 24.04, 16.89, 20.00, -0.160, -0.816, 0.288, 18:40:57.873, 1590856857873
70, 11.50, 20.05, 11.23, 14.01, -0.160, -0.816, 0.288, 18:40:57.873, 1590856857873
71, -5.00, 2.44, -5.32, 0.96, -0.160, -0.816, 0.288, 18:40:57.874, 1590856857874
72, -3.21, 4.83, 1.41, 1.20, -0.160, -0.816, 0.288, 18:40:57.874, 1590856857874
73, 16.59, 16.08, 16.75, 24.26, -0.160, -0.816, 0.288, 18:40:57.888, 1590856857888
74, 9.67, 16.15, 16.90, 12.84, -0.160, -0.816, 0.288, 18:40:57.888, 1590856857888
75, -4.13, 5.03, 0.35, -3.61, -0.160, -0.816, 0.288, 18:40:57.903, 1590856857903
76, 1.05, 9.05, 4.03, -0.45, -0.160, -0.816, 0.288, 18:40:57.903, 1590856857903
77, 20.03, 15.63, 17.14, 15.66, -0.160, -0.816, 0.288, 18:40:57.904, 1590856857904
78, 8.47, 13.68, 11.35, 19.21, -0.160, -0.816, 0.288, 18:40:57.904, 1590856857904
79, -1.25, 3.46, -4.55, -7.96, -0.160, -0.816, 0.288, 18:40:57.918, 1590856857918
80, -4.90, 6.02, 2.95, 2.76, -0.160, -0.816, 0.288, 18:40:57.918, 1590856857918
81, 13.13, 22.72, 17.40, 21.97, -0.160, -0.816, 0.288, 18:40:57.934, 1590856857934
82, 11.45, 17.71, 11.33, 14.75, -0.160, -0.816, 0.288, 18:40:57.934, 1590856857934
83, -4.17, 0.39, -4.67, -0.65, -0.160, -0.816, 0.288, 18:40:57.934, 1590856857934
84, 0.31, 0.02, -1.59, 4.86, -0.160, -0.816, 0.288, 18:40:57.934, 1590856857934
85, 22.11, 18.39, 24.48, 18.39, -0.160, -0.816, 0.288, 18:40:57.948, 1590856857948
86, 14.62, 14.22, 14.08, 6.70, -0.272, -0.592, 0.336, 18:40:57.948, 1590856857948
87, -7.11, -1.37, -6.83, -12.05, -0.272, -0.592, 0.336, 18:40:57.963, 1590856857963
88, 0.24, 5.76, 6.12, -5.97, -0.272, -0.592, 0.336, 18:40:57.963, 1590856857963
89, 18.83, 15.78, 21.80, 8.63, -0.272, -0.592, 0.336, 18:40:57.964, 1590856857964
90, 12.94, 13.73, 8.15, 12.68, -0.272, -0.592, 0.336, 18:40:57.964, 1590856857964
91, -1.20, -2.19, -1.60, -14.93, -0.272, -0.592, 0.336, 18:40:57.978, 1590856857978
92, 4.02, 3.92, -2.75, -18.20, -0.272, -0.592, 0.336, 18:40:57.978, 1590856857978
93, 20.40, 25.85, 19.99, 6.52, -0.272, -0.592, 0.336, 18:40:57.993, 1590856857993
94, 11.76, 15.89, 8.96, -4.80, -0.272, -0.592, 0.336, 18:40:57.993, 1590856857993
95, -14.16, -1.96, -5.36, -14.66, -0.272, -0.592, 0.336, 18:40:57.994, 1590856857994
96, -0.66, 6.98, 10.27, -1.48, -0.272, -0.592, 0.336, 18:40:57.994, 1590856857994
97, 21.21, 26.24, 29.26, 21.77, -0.272, -0.592, 0.336, 18:40:58.024, 1590856858024
98, 11.28, 16.97, 15.53, 16.58, -0.272, -0.592, 0.336, 18:40:58.024, 1590856858024
99, -8.42, -1.97, -8.94, -1.03, -0.272, -0.592, 0.336, 18:40:58.025, 1590856858025
100, -1.87, 6.49, -0.66, 3.63, -0.272, -0.592, 0.336, 18:40:58.025, 1590856858025
101, 21.53, 21.95, 23.07, 18.43, -0.272, -0.592, 0.336, 18:40:58.039, 1590856858039
102, 16.03, 20.89, 13.14, 15.84, -0.272, -0.592, 0.336, 18:40:58.039, 1590856858039
103, -12.14, -8.93, -14.40, -1.76, -0.272, -0.592, 0.336, 18:40:58.054, 1590856858054
104, -4.35, 2.04, -2.03, -0.85, -0.272, -0.592, 0.336, 18:40:58.054, 1590856858054
105, 24.32, 23.83, 19.83, 30.53, -0.272, -0.592, 0.336, 18:40:58.055, 1590856858055
106, 16.68, 19.42, 12.31, 20.44, -0.272, -0.544, 0.512, 18:40:58.055, 1590856858055
107, -12.35, -7.86, -15.54, -6.64, -0.272, -0.544, 0.512, 18:40:58.068, 1590856858068
108, -6.13, 6.06, -4.32, 7.88, -0.272, -0.544, 0.512, 18:40:58.068, 1590856858068
109, 25.12, 24.47, 21.42, 26.18, -0.272, -0.544, 0.512, 18:40:58.069, 1590856858069
110, 15.80, 22.99, 13.69, 18.73, -0.272, -0.544, 0.512, 18:40:58.069, 1590856858069
111, -12.94, -6.33, -12.69, -6.43, -0.272, -0.544, 0.512, 18:40:58.083, 1590856858083
112, -2.72, 6.57, -4.56, 1.04, -0.272, -0.544, 0.512, 18:40:58.083, 1590856858083
113, 18.57, 26.09, 19.22, 25.19, -0.272, -0.544, 0.512, 18:40:58.099, 1590856858099
114, 17.50, 22.66, 10.53, 22.67, -0.272, -0.544, 0.512, 18:40:58.099, 1590856858099
115, -11.45, -5.08, -11.19, -4.80, -0.272, -0.544, 0.512, 18:40:58.100, 1590856858100
116, -6.02, 1.66, -2.94, 1.79, -0.272, -0.544, 0.512, 18:40:58.100, 1590856858100
117, 25.24, 26.75, 23.32, 21.52, -0.272, -0.544, 0.512, 18:40:58.113, 1590856858113
118, 16.12, 19.93, 19.50, 17.90, -0.272, -0.544, 0.512, 18:40:58.113, 1590856858113
119, -9.68, -6.08, 2.25, -10.60, -0.272, -0.544, 0.512, 18:40:58.114, 1590856858114
120, -0.35, 6.80, 7.67, 6.28, -0.272, -0.544, 0.512, 18:40:58.114, 1590856858114
121, 24.11, 28.96, 25.44, 22.33, -0.272, -0.544, 0.512, 18:40:58.128, 1590856858128
122, 14.48, 16.54, 16.73, 18.20, -0.272, -0.544, 0.512, 18:40:58.128, 1590856858128
123, -11.22, -4.70, -10.09, -4.13, -0.272, -0.544, 0.512, 18:40:58.143, 1590856858143
124, -2.02, 1.27, -1.04, 0.13, -0.272, -0.544, 0.512, 18:40:58.143, 1590856858143
125, 23.09, 26.92, 23.94, 26.98, -0.272, -0.544, 0.512, 18:40:58.144, 1590856858144
126, 18.25, 22.80, 17.09, 23.19, -0.368, -0.544, 0.384, 18:40:58.144, 1590856858144
127, -9.65, -5.59, -2.90, -8.11, -0.368, -0.544, 0.384, 18:40:58.158, 1590856858158
128, -2.80, 1.40, 0.06, 1.84, -0.368, -0.544, 0.384, 18:40:58.158, 1590856858158
129, 24.31, 28.89, 20.77, 22.13, -0.368, -0.544, 0.384, 18:40:58.173, 1590856858173
130, 17.69, 17.99, 17.37, 22.34, -0.368, -0.544, 0.384, 18:40:58.173, 1590856858173
131, -8.96, -3.97, -13.91, 1.78, -0.368, -0.544, 0.384, 18:40:58.174, 1590856858174
132, -0.15, 5.08, -3.21, 0.26, -0.368, -0.544, 0.384, 18:40:58.174, 1590856858174
133, 21.92, 23.89, 20.98, 16.12, -0.368, -0.544, 0.384, 18:40:58.188, 1590856858188
134, 16.10, 18.07, 14.23, 14.71, -0.368, -0.544, 0.384, 18:40:58.188, 1590856858188
135, -6.89, -3.57, -4.01, -7.52, -0.368, -0.544, 0.384, 18:40:58.203, 1590856858203
136, 0.39, 6.65, 2.35, 7.30, -0.368, -0.544, 0.384, 18:40:58.203, 1590856858203
137, 22.39, 25.42, 21.30, 18.50, -0.368, -0.544, 0.384, 18:40:58.204, 1590856858204
138, 17.10, 18.24, 15.70, 16.56, -0.368, -0.544, 0.384, 18:40:58.204, 1590856858204
139, -6.13, -8.21, -5.96, 5.71, -0.368, -0.544, 0.384, 18:40:58.218, 1590856858218
140, -2.93, 0.53, -0.56, 3.91, -0.368, -0.544, 0.384, 18:40:58.218, 1590856858218
141, 22.05, 26.72, 17.45, 26.04, -0.368, -0.544, 0.384, 18:40:58.233, 1590856858233
142, 16.38, 21.22, 20.38, 13.88, -0.368, -0.544, 0.384, 18:40:58.233, 1590856858233
143, -10.31, -3.89, -6.97, -8.24, -0.368, -0.544, 0.384, 18:40:58.234, 1590856858234
144, 2.04, -0.35, 4.12, 6.02, -0.368, -0.544, 0.384, 18:40:58.234, 1590856858234
145, 21.95, 26.78, 19.61, 24.34, -0.368, -0.544, 0.384, 18:40:58.248, 1590856858248
146, 10.34, 12.05, 13.31, 22.20, -0.416, -0.672, 0.560, 18:40:58.248, 1590856858248
147, -4.13, -0.91, -6.93, -1.61, -0.416, -0.672, 0.560, 18:40:58.280, 1590856858280
148, 4.56, 6.56, -1.11, 3.20, -0.416, -0.672, 0.560, 18:40:58.280, 1590856858280
149, 21.97, 26.12, 18.17, 23.26, -0.416, -0.672, 0.560, 18:40:58.280, 1590856858280
150, 17.21, 21.62, 14.77, 14.29, -0.416, -0.672, 0.560, 18:40:58.280, 1590856858280
151, -7.88, -4.03, -6.02, -4.56, -0.416, -0.672, 0.560, 18:40:58.281, 1590856858281
152, -0.48, -1.66, -1.95, -2.74, -0.416, -0.672, 0.560, 18:40:58.281, 1590856858281
153, 14.22, 20.59, 15.48, 22.09, -0.416, -0.672, 0.560, 18:40:58.282, 1590856858282
154, 14.57, 19.46, 17.71, 20.83, -0.416, -0.672, 0.560, 18:40:58.282, 1590856858282
155, -12.67, -7.01, -8.44, -6.60, -0.416, -0.672, 0.560, 18:40:58.293, 1590856858293
156, 0.85, 4.33, 2.00, 6.19, -0.416, -0.672, 0.560, 18:40:58.293, 1590856858293
157, 20.83, 27.40, 19.98, 23.43, -0.416, -0.672, 0.560, 18:40:58.308, 1590856858308
158, 15.19, 16.76, 14.13, 21.43, -0.416, -0.672, 0.560, 18:40:58.308, 1590856858308
159, -11.76, -2.12, -7.07, -5.80, -0.416, -0.672, 0.560, 18:40:58.323, 1590856858323
160, -3.48, 3.69, -0.09, 7.62, -0.416, -0.672, 0.560, 18:40:58.323, 1590856858323
161, 18.16, 21.39, 16.44, 18.61, -0.416, -0.672, 0.560, 18:40:58.324, 1590856858324
162, 15.01, 19.62, 12.30, 19.52, -0.416, -0.672, 0.560, 18:40:58.324, 1590856858324
163, -10.68, -2.31, -5.01, -5.09, -0.416, -0.672, 0.560, 18:40:58.338, 1590856858338
164, -4.34, 1.65, 3.56, 2.76, -0.416, -0.672, 0.560, 18:40:58.338, 1590856858338
165, 22.98, 24.04, 19.08, 19.17, -0.416, -0.672, 0.560, 18:40:58.354, 1590856858354
166, 19.15, 20.35, 19.82, 20.43, -0.448, -0.656, 0.736, 18:40:58.354, 1590856858354
167, -13.42, -2.60, -11.45, -2.19, -0.448, -0.656, 0.736, 18:40:58.354, 1590856858354
168, -6.10, 1.07, -0.36, 0.23, -0.448, -0.656, 0.736, 18:40:58.354, 1590856858354
169, 23.25, 29.30, 24.51, 28.24, -0.448, -0.656, 0.736, 18:40:58.368, 1590856858368
170, 12.99, 14.67, 14.96, 17.38, -0.448, -0.656, 0.736, 18:40:58.368, 1590856858368
171, -12.24, -4.12, -6.44, 4.27, -0.448, -0.656, 0.736, 18:40:58.384, 1590856858384
172, 0.00, 3.82, 3.11, 0.59, -0.448, -0.656, 0.736, 18:40:58.384, 1590856858384
173, 22.19, 22.30, 17.81, 21.08, -0.448, -0.656, 0.736, 18:40:58.384, 1590856858384
174, 18.24, 15.86, 16.10, 15.02, -0.448, -0.656, 0.736, 18:40:58.384, 1590856858384
175, -10.40, -5.10, -0.34, -8.01, -0.448, -0.656, 0.736, 18:40:58.398, 1590856858398
176, -4.19, 0.77, -1.42, 1.73, -0.448, -0.656, 0.736, 18:40:58.398, 1590856858398
177, 21.17, 24.60, 20.08, 28.39, -0.448, -0.656, 0.736, 18:40:58.413, 1590856858413
178, 18.54, 21.28, 13.97, 23.44, -0.448, -0.656, 0.736, 18:40:58.413, 1590856858413
179, -12.79, 0.90, -13.50, -3.30, -0.448, -0.656, 0.736, 18:40:58.414, 1590856858414
180, 2.40, 3.33, -0.38, 6.63, -0.448, -0.656, 0.736, 18:40:58.414, 1590856858414
181, 22.79, 26.87, 20.31, 32.05, -0.448, -0.656, 0.736, 18:40:58.428, 1590856858428
182, 17.78, 18.49, 11.83, 16.39, -0.448, -0.656, 0.736, 18:40:58.428, 1590856858428
183, -7.28, -6.33, -6.79, -0.11, -0.448, -0.656, 0.736, 18:40:58.443, 1590856858443
184, -2.08, 2.48, -2.14, 0.18, -0.448, -0.656, 0.736, 18:40:58.443, 1590856858443
185, 23.71, 24.23, 20.31, 18.71, -0.448, -0.656, 0.736, 18:40:58.444, 1590856858444
186, 17.78, 18.51, 16.32, 21.63, -0.432, -0.576, 0.720, 18:40:58.444, 1590856858444
187, -12.64, -1.94, -8.40, -4.13, -0.432, -0.576, 0.720, 18:40:58.458, 1590856858458
188, -8.07, 2.18, 0.61, 1.53, -0.432, -0.576, 0.720, 18:40:58.458, 1590856858458
189, 27.38, 24.80, 25.69, 30.38, -0.432, -0.576, 0.720, 18:40:58.473, 1590856858473
190, 18.51, 19.33, 14.84, 22.92, -0.432, -0.576, 0.720, 18:40:58.473, 1590856858473
191, -10.73, -10.51, -13.46, -6.05, -0.432, -0.576, 0.720, 18:40:58.474, 1590856858474
192, -6.45, 1.94, -3.41, 4.74, -0.432, -0.576, 0.720, 18:40:58.474, 1590856858474
193, 20.51, 27.77, 20.80, 24.88, -0.432, -0.576, 0.720, 18:40:58.504, 1590856858504
194, 17.00, 17.82, 16.17, 20.64, -0.432, -0.576, 0.720, 18:40:58.504, 1590856858504
195, -13.97, -4.67, -13.87, -6.13, -0.432, -0.576, 0.720, 18:40:58.504, 1590856858504
196, -1.59, 2.72, -2.35, 2.73, -0.432, -0.576, 0.720, 18:40:58.504, 1590856858504
197, 24.39, 26.38, 25.13, 28.79, -0.432, -0.576, 0.720, 18:40:58.505, 1590856858505
198, 20.71, 18.58, 17.50, 17.35, -0.432, -0.576, 0.720, 18:40:58.505, 1590856858505
199, -12.29, -5.31, -11.60, -4.23, -0.432, -0.576, 0.720, 18:40:58.518, 1590856858518
200, -2.42, 3.01, 2.61, 1.90, -0.432, -0.576, 0.720, 18:40:58.518, 1590856858518
0, 21.58, 25.61, 19.70, 22.25, -0.432, -0.576, 0.720, 18:40:58.519, 1590856858519
1, 19.19, 19.32, 15.82, 21.96, -0.432, -0.576, 0.720, 18:40:58.533, 1590856858533
2, -12.48, -10.29, -15.48, -11.03, -0.432, -0.576, 0.720, 18:40:58.533, 1590856858533
3, -1.86, 2.62, -1.37, -0.54, -0.432, -0.576, 0.720, 18:40:58.565, 1590856858565
4, 23.03, 27.04, 24.50, 23.95, -0.432, -0.576, 0.720, 18:40:58.565, 1590856858565
5, 14.44, 21.61, 14.96, 19.89, -0.432, -0.576, 0.720, 18:40:58.565, 1590856858565
6, -16.01, -9.46, -15.21, -8.29, -0.432, -0.528, 0.624, 18:40:58.565, 1590856858565
7, -4.08, -2.75, -6.08, 1.73, -0.432, -0.528, 0.624, 18:40:58.566, 1590856858566
8, 25.96, 25.14, 19.34, 25.15, -0.432, -0.528, 0.624, 18:40:58.566, 1590856858566
9, 20.88, 20.23, 15.32, 22.34, -0.432, -0.528, 0.624, 18:40:58.567, 1590856858567
10, -16.30, -10.63, -15.33, -4.61, -0.432, -0.528, 0.624, 18:40:58.567, 1590856858567
11, -5.04, -0.54, -7.61, -1.44, -0.432, -0.528, 0.624, 18:40:58.578, 1590856858578
12, 22.99, 30.91, 23.41, 20.58, -0.432, -0.528, 0.624, 18:40:58.578, 1590856858578
13, 18.19, 23.97, 20.36, 26.88, -0.432, -0.528, 0.624, 18:40:58.593, 1590856858593
14, -14.81, -10.95, -12.92, -12.61, -0.432, -0.528, 0.624, 18:40:58.593, 1590856858593
15, -5.03, 0.02, -2.05, 3.46, -0.432, -0.528, 0.624, 18:40:58.608, 1590856858608
16, 23.67, 29.68, 25.10, 27.40, -0.432, -0.528, 0.624, 18:40:58.608, 1590856858608
17, 23.09, 19.93, 21.41, 23.41, -0.432, -0.528, 0.624, 18:40:58.609, 1590856858609
18, -16.67, -10.67, -13.86, -9.34, -0.432, -0.528, 0.624, 18:40:58.609, 1590856858609
19, -8.03, 3.30, -1.70, -0.13, -0.432, -0.528, 0.624, 18:40:58.622, 1590856858622
20, 20.98, 29.60, 22.27, 22.94, -0.432, -0.528, 0.624, 18:40:58.622, 1590856858622
21, 22.91, 22.44, 18.29, 16.30, -0.432, -0.528, 0.624, 18:40:58.638, 1590856858638
22, -17.77, -11.99, -16.29, -13.75, -0.432, -0.528, 0.624, 18:40:58.638, 1590856858638
23, -8.85, -0.13, -1.74, 2.72, -0.432, -0.528, 0.624, 18:40:58.639, 1590856858639
24, 26.82, 30.09, 22.83, 26.81, -0.432, -0.528, 0.624, 18:40:58.639, 1590856858639
25, 19.21, 19.43, 19.78, 20.35, -0.432, -0.528, 0.624, 18:40:58.653, 1590856858653
26, -20.09, -18.02, -17.38, -10.31, -0.480, -0.576, 0.576, 18:40:58.653, 1590856858653
27, -6.59, 0.25, 1.66, 2.96, -0.480, -0.576, 0.576, 18:40:58.668, 1590856858668
28, 24.11, 27.55, 29.59, 27.59, -0.480, -0.576, 0.576, 18:40:58.668, 1590856858668
29, 22.51, 22.50, 22.29, 23.00, -0.480, -0.576, 0.576, 18:40:58.669, 1590856858669
30, -23.05, -13.29, -9.29, -14.82, -0.480, -0.576, 0.576, 18:40:58.669, 1590856858669
31, -6.89, 1.21, -0.65, -3.45, -0.480, -0.576, 0.576, 18:40:58.683, 1590856858683
32, 25.49, 25.25, 24.83, 22.05, -0.480, -0.576, 0.576, 18:40:58.683, 1590856858683
33, 23.77, 20.69, 17.14, 21.45, -0.480, -0.576, 0.576, 18:40:58.699, 1590856858699
34, -22.43, -13.58, -17.27, -9.52, -0.480, -0.576, 0.576, 18:40:58.699, 1590856858699
35, -3.81, -0.08, 2.02, 2.16, -0.480, -0.576, 0.576, 18:40:58.699, 1590856858699
36, 29.82, 29.17, 23.70, 24.25, -0.480, -0.576, 0.576, 18:40:58.699, 1590856858699
37, 21.39, 19.89, 20.64, 27.99, -0.480, -0.576, 0.576, 18:40:58.712, 1590856858712
38, -20.68, -13.40, -12.29, -9.22, -0.480, -0.576, 0.576, 18:40:58.712, 1590856858712
39, -5.71, -8.55, 3.15, 3.18, -0.480, -0.576, 0.576, 18:40:58.728, 1590856858728
40, 23.94, 21.89, 22.69, 23.45, -0.480, -0.576, 0.576, 18:40:58.728, 1590856858728
41, 18.62, 19.81, 14.49, 19.35, -0.480, -0.576, 0.576, 18:40:58.729, 1590856858729
42, -16.60, -8.29, -13.24, -5.88, -0.480, -0.576, 0.576, 18:40:58.729, 1590856858729
43, -2.89, 4.58, -0.11, 0.80, -0.480, -0.576, 0.576, 18:40:58.743, 1590856858743
44, 18.75, 26.10, 19.44, 21.02, -0.480, -0.576, 0.576, 18:40:58.743, 1590856858743
45, 15.54, 20.12, 16.48, 22.50, -0.480, -0.576, 0.576, 18:40:58.758, 1590856858758
46, -14.47, -7.31, -6.51, -2.91, -0.560, -0.592, 0.368, 18:40:58.758, 1590856858758
47, -0.59, 5.72, -1.60, 1.81, -0.560, -0.592, 0.368, 18:40:58.759, 1590856858759
48, 20.65, 26.70, 17.48, 26.02, -0.560, -0.592, 0.368, 18:40:58.759, 1590856858759
49, 16.82, 22.34, 16.58, 22.28, -0.560, -0.592, 0.368, 18:40:58.773, 1590856858773
50, -9.30, -3.44, -9.69, -3.73, -0.560, -0.592, 0.368, 18:40:58.773, 1590856858773
51, -5.15, 4.92, 2.78, 2.41, -0.560, -0.592, 0.368, 18:40:58.789, 1590856858789
52, 22.98, 24.06, 21.67, 22.76, -0.560, -0.592, 0.368, 18:40:58.789, 1590856858789
53, 16.94, 23.00, 18.10, 16.84, -0.560, -0.592, 0.368, 18:40:58.789, 1590856858789
54, -7.02, -10.27, -5.65, -8.24, -0.560, -0.592, 0.368, 18:40:58.789, 1590856858789
55, -2.64, 7.61, -2.31, 1.93, -0.560, -0.592, 0.368, 18:40:58.802, 1590856858802
56, 17.17, 20.01, 15.88, 23.28, -0.560, -0.592, 0.368, 18:40:58.802, 1590856858802
57, 17.98, 22.16, 15.27, 20.80, -0.560, -0.592, 0.368, 18:40:58.819, 1590856858819
58, -8.91, 3.57, -8.64, -3.24, -0.560, -0.592, 0.368, 18:40:58.819, 1590856858819
59, -1.97, 6.16, 3.80, 5.51, -0.560, -0.592, 0.368, 18:40:58.819, 1590856858819
60, 22.15, 25.82, 22.40, 18.59, -0.560, -0.592, 0.368, 18:40:58.819, 1590856858819
61, 16.56, 22.28, 19.26, 19.40, -0.560, -0.592, 0.368, 18:40:58.832, 1590856858832
62, -12.45, -4.58, -6.25, -4.70, -0.560, -0.592, 0.368, 18:40:58.832, 1590856858832
63, 0.11, 6.11, 1.35, 0.49, -0.560, -0.592, 0.368, 18:40:58.848, 1590856858848
64, 19.28, 21.96, 17.10, 19.80, -0.560, -0.592, 0.368, 18:40:58.848, 1590856858848
65, 14.18, 19.57, 15.69, 15.88, -0.560, -0.592, 0.368, 18:40:58.850, 1590856858850
66, -11.04, 0.18, -7.20, -6.08, -0.656, -0.592, 0.368, 18:40:58.850, 1590856858850
67, 2.05, 6.65, 2.45, 5.13, -0.656, -0.592, 0.368, 18:40:58.863, 1590856858863
68, 19.47, 20.81, 18.97, 20.50, -0.656, -0.592, 0.368, 18:40:58.863, 1590856858863
69, 14.37, 15.41, 13.34, 18.51, -0.656, -0.592, 0.368, 18:40:58.895, 1590856858895
70, -2.09, -3.08, -6.20, -5.87, -0.656, -0.592, 0.368, 18:40:58.895, 1590856858895
71, -1.24, 2.72, 5.00, 3.44, -0.656, -0.592, 0.368, 18:40:58.895, 1590856858895
72, 22.28, 22.90, 16.99, 22.62, -0.656, -0.592, 0.368, 18:40:58.895, 1590856858895
73, 16.61, 21.00, 18.96, 19.04, -0.656, -0.592, 0.368, 18:40:58.896, 1590856858896
74, -8.66, -0.45, -3.72, -3.68, -0.656, -0.592, 0.368, 18:40:58.896, 1590856858896
75, -1.72, 4.64, 0.65, 3.08, -0.656, -0.592, 0.368, 18:40:58.897, 1590856858897
76, 19.08, 23.93, 19.34, 19.18, -0.656, -0.592, 0.368, 18:40:58.897, 1590856858897
77, 12.52, 17.97, 10.96, 15.06, -0.656, -0.592, 0.368, 18:40:58.908, 1590856858908
78, -2.24, 0.76, -0.65, -3.61, -0.656, -0.592, 0.368, 18:40:58.908, 1590856858908
79, 0.88, 6.68, 6.50, -0.23, -0.656, -0.592, 0.368, 18:40:58.923, 1590856858923
80, 14.77, 21.49, 16.21, 18.30, -0.656, -0.592, 0.368, 18:40:58.923, 1590856858923
81, 14.33, 17.92, 12.47, 21.63, -0.656, -0.592, 0.368, 18:40:58.938, 1590856858938
82, -11.35, -3.35, -0.45, -1.26, -0.656, -0.592, 0.368, 18:40:58.938, 1590856858938
83, -4.58, 8.24, 3.75, 1.60, -0.656, -0.592, 0.368, 18:40:58.939, 1590856858939
84, 18.34, 23.83, 18.09, 19.38, -0.656, -0.592, 0.368, 18:40:58.939, 1590856858939
85, 14.50, 18.14, 16.72, 17.70, -0.656, -0.592, 0.368, 18:40:58.953, 1590856858953
86, -9.08, -1.77, -11.13, 0.85, -0.560, -0.640, 0.112, 18:40:58.953, 1590856858953
87, 1.84, 3.85, 1.76, 5.56, -0.560, -0.640, 0.112, 18:40:58.968, 1590856858968
88, 17.59, 22.57, 14.58, 15.60, -0.560, -0.640, 0.112, 18:40:58.968, 1590856858968
89, 20.17, 21.31, 11.18, 20.72, -0.560, -0.640, 0.112, 18:40:58.969, 1590856858969
90, -9.96, -2.53, -2.92, -5.76, -0.560, -0.640, 0.112, 18:40:58.969, 1590856858969
91, -3.31, 8.75, 5.58, 0.95, -0.560, -0.640, 0.112, 18:40:58.983, 1590856858983
92, 13.37, 20.03, 14.36, 19.19, -0.560, -0.640, 0.112, 18:40:58.983, 1590856858983
93, 13.78, 18.80, 17.41, 18.68, -0.560, -0.640, 0.112, 18:40:58.999, 1590856858999
94, -4.98, 3.12, -3.99, -1.73, -0.560, -0.640, 0.112, 18:40:58.999, 1590856858999
95, -2.47, 8.09, 5.20, 10.54, -0.560, -0.640, 0.112, 18:40:59.000, 1590856859000
96, 14.58, 16.04, 16.31, 17.65, -0.560, -0.640, 0.112, 18:40:59.000, 1590856859000
97, 18.97, 24.60, 12.09, 16.26, -0.560, -0.640, 0.112, 18:40:59.013, 1590856859013
98, -3.43, -5.83, -4.91, 0.65, -0.560, -0.640, 0.112, 18:40:59.013, 1590856859013
99, 0.58, 4.67, -1.74, 2.53, -0.560, -0.640, 0.112, 18:40:59.028, 1590856859028
100, 13.29, 19.73, 21.10, 25.82, -0.560, -0.640, 0.112, 18:40:59.028, 1590856859028
101, 13.99, 21.66, 15.11, 18.15, -0.560, -0.640, 0.112, 18:40:59.029, 1590856859029
102, -12.71, 2.76, -2.65, -0.20, -0.560, -0.640, 0.112, 18:40:59.029, 1590856859029
103, -0.59, 7.05, 1.68, 2.41, -0.560, -0.640, 0.112, 18:40:59.043, 1590856859043
104, 19.37, 17.60, 14.90, 15.40, -0.560, -0.640, 0.112, 18:40:59.043, 1590856859043
105, 17.32, 17.13, 15.71, 19.37, -0.560, -0.640, 0.112, 18:40:59.058, 1590856859058
106, -5.21, 0.40, -6.19, -0.44, -0.416, -0.656, -0.160, 18:40:59.058, 1590856859058
107, -1.25, 5.13, -0.08, 0.66, -0.416, -0.656, -0.160, 18:40:59.059, 1590856859059
108, 13.07, 18.44, 14.42, 17.46, -0.416, -0.656, -0.160, 18:40:59.059, 1590856859059
109, 13.19, 17.43, 14.50, 18.27, -0.416, -0.656, -0.160, 18:40:59.073, 1590856859073
110, -8.33, 1.67, -4.40, -8.66, -0.416, -0.656, -0.160, 18:40:59.073, 1590856859073
111, 4.30, 7.85, -0.14, 1.09, -0.416, -0.656, -0.160, 18:40:59.088, 1590856859088
112, 18.98, 21.64, 13.25, 20.29, -0.416, -0.656, -0.160, 18:40:59.088, 1590856859088
113, 17.20, 19.97, 9.39, 17.38, -0.416, -0.656, -0.160, 18:40:59.089, 1590856859089
114, -3.68, 0.11, -4.34, 2.02, -0.416, -0.656, -0.160, 18:40:59.089, 1590856859089
115, 2.96, 5.74, 3.82, 0.41, -0.416, -0.656, -0.160, 18:40:59.103, 1590856859103
116, 13.16, 15.00, 11.87, 14.69, -0.416, -0.656, -0.160, 18:40:59.103, 1590856859103
117, 17.70, 14.56, 13.22, 20.19, -0.416, -0.656, -0.160, 18:40:59.118, 1590856859118
118, -1.26, 3.42, -4.34, -0.70, -0.416, -0.656, -0.160, 18:40:59.118, 1590856859118
119, 2.56, 2.68, -0.80, 7.38, -0.416, -0.656, -0.160, 18:40:59.120, 1590856859120
120, 16.23, 16.95, 12.61, 18.33, -0.416, -0.656, -0.160, 18:40:59.120, 1590856859120
121, 21.36, 19.78, 16.35, 18.54, -0.416, -0.656, -0.160, 18:40:59.133, 1590856859133
122, -3.00, -1.04, -2.12, -3.25, -0.416, -0.656, -0.160, 18:40:59.133, 1590856859133
123, 3.25, 7.14, 2.82, 3.58, -0.416, -0.656, -0.160, 18:40:59.148, 1590856859148
124, 17.77, 18.58, 20.64, 17.65, -0.416, -0.656, -0.160, 18:40:59.148, 1590856859148
125, 13.51, 19.81, 15.77, 19.16, -0.416, -0.656, -0.160, 18:40:59.149, 1590856859149
126, -2.05, 2.05, -5.16, -0.75, -0.192, -0.768, -0.384, 18:40:59.149, 1590856859149
127, 2.87, 6.97, 1.58, 3.43, -0.192, -0.768, -0.384, 18:40:59.163, 1590856859163
128, 9.52, 12.06, 10.12, 18.43, -0.192, -0.768, -0.384, 18:40:59.163, 1590856859163
129, 14.19, 21.44, 16.27, 21.04, -0.192, -0.768, -0.384, 18:40:59.178, 1590856859178
130, -3.53, 0.60, -1.54, -2.92, -0.192, -0.768, -0.384, 18:40:59.178, 1590856859178
131, -0.75, 5.85, 1.63, 6.30, -0.192, -0.768, -0.384, 18:40:59.179, 1590856859179
132, 11.97, 17.22, 9.94, 15.65, -0.192, -0.768, -0.384, 18:40:59.179, 1590856859179
133, 12.32, 21.68, 13.82, 19.68, -0.192, -0.768, -0.384, 18:40:59.193, 1590856859193
134, -3.00, -1.01, -4.47, 0.18, -0.192, -0.768, -0.384, 18:40:59.193, 1590856859193
135, 5.41, 7.21, 1.31, 7.39, -0.192, -0.768, -0.384, 18:40:59.209, 1590856859209
136, 16.50, 18.06, 11.00, 17.24, -0.192, -0.768, -0.384, 18:40:59.209, 1590856859209
137, 16.89, 14.74, 6.77, 18.20, -0.192, -0.768, -0.384, 18:40:59.209, 1590856859209
138, -5.91, 2.74, -0.82, 3.81, -0.192, -0.768, -0.384, 18:40:59.209, 1590856859209
139, -2.24, 7.95, 3.12, 6.14, -0.192, -0.768, -0.384, 18:40:59.223, 1590856859223
140, 10.46, 19.35, 10.25, 17.68, -0.192, -0.768, -0.384, 18:40:59.223, 1590856859223
141, 10.63, 18.68, 12.99, 15.32, -0.192, -0.768, -0.384, 18:40:59.238, 1590856859238
142, -1.92, 12.07, 0.13, -3.10, -0.192, -0.768, -0.384, 18:40:59.238, 1590856859238
143, 1.09, 4.05, 4.23, 1.22, -0.192, -0.768, -0.384, 18:40:59.239, 1590856859239
144, 10.82, 15.06, 12.65, 12.95, -0.192, -0.768, -0.384, 18:40:59.239, 1590856859239
145, 14.82, 17.89, 10.79, 20.35, -0.192, -0.768, -0.384, 18:40:59.253, 1590856859253
146, -6.96, 4.18, -2.51, 2.63, 0.000, -0.800, -0.544, 18:40:59.253, 1590856859253
147, 1.86, 5.16, 2.65, 9.68, 0.000, -0.800, -0.544, 18:40:59.268, 1590856859268
148, 7.44, 15.92, 11.35, 20.51, 0.000, -0.800, -0.544, 18:40:59.268, 1590856859268
149, 18.07, 23.75, 15.07, 20.94, 0.000, -0.800, -0.544, 18:40:59.269, 1590856859269
150, -4.18, -2.37, 0.60, 2.96, 0.000, -0.800, -0.544, 18:40:59.269, 1590856859269
151, -2.88, 5.46, 2.26, 10.19, 0.000, -0.800, -0.544, 18:40:59.282, 1590856859282
152, 12.06, 13.09, 10.39, 15.73, 0.000, -0.800, -0.544, 18:40:59.282, 1590856859282
153, 12.22, 19.16, 13.19, 14.94, 0.000, -0.800, -0.544, 18:40:59.299, 1590856859299
154, 1.27, 2.84, 1.74, 3.44, 0.000, -0.800, -0.544, 18:40:59.299, 1590856859299
155, -1.10, 5.57, 1.94, 3.93, 0.000, -0.800, -0.544, 18:40:59.300, 1590856859300
156, 11.67, 12.47, 13.41, 12.07, 0.000, -0.800, -0.544, 18:40:59.300, 1590856859300
157, 11.25, 18.25, 11.08, 19.23, 0.000, -0.800, -0.544, 18:40:59.329, 1590856859329
158, -4.12, 1.41, -4.91, -0.11, 0.000, -0.800, -0.544, 18:40:59.329, 1590856859329
159, -2.10, 5.70, 1.12, 3.69, 0.000, -0.800, -0.544, 18:40:59.330, 1590856859330
160, 15.03, 12.58, 8.67, 19.32, 0.000, -0.800, -0.544, 18:40:59.330, 1590856859330
161, 18.22, 21.30, 14.81, 22.64, 0.000, -0.800, -0.544, 18:40:59.330, 1590856859330
162, -6.05, 3.86, -4.83, 0.68, 0.000, -0.800, -0.544, 18:40:59.330, 1590856859330
163, -4.07, 7.25, 2.37, 4.67, 0.000, -0.800, -0.544, 18:40:59.343, 1590856859343
164, 19.44, 17.39, 11.23, 14.53, 0.000, -0.800, -0.544, 18:40:59.343, 1590856859343
165, 15.65, 14.37, 9.08, 19.29, 0.000, -0.800, -0.544, 18:40:59.358, 1590856859358
166, -3.80, 2.52, -1.81, -0.78, 0.144, -0.704, -0.720, 18:40:59.358, 1590856859358
167, -0.89, 5.32, 4.41, 6.88, 0.144, -0.704, -0.720, 18:40:59.359, 1590856859359
168, 10.37, 19.81, 12.54, 16.75, 0.144, -0.704, -0.720, 18:40:59.359, 1590856859359
169, 12.80, 21.07, 17.18, 21.16, 0.144, -0.704, -0.720, 18:40:59.373, 1590856859373
170, -5.59, -0.76, -4.57, -2.53, 0.144, -0.704, -0.720, 18:40:59.373, 1590856859373
171, -6.11, 3.18, 2.26, 4.76, 0.144, -0.704, -0.720, 18:40:59.388, 1590856859388
172, 18.65, 17.35, 15.04, 14.31, 0.144, -0.704, -0.720, 18:40:59.388, 1590856859388
173, 15.91, 17.77, 16.54, 20.92, 0.144, -0.704, -0.720, 18:40:59.389, 1590856859389
174, -6.24, 0.91, -5.52, -2.13, 0.144, -0.704, -0.720, 18:40:59.389, 1590856859389
175, 1.80, 4.68, 3.02, 3.20, 0.144, -0.704, -0.720, 18:40:59.403, 1590856859403
176, 14.62, 16.92, 11.69, 20.37, 0.144, -0.704, -0.720, 18:40:59.403, 1590856859403
177, 15.31, 21.38, 14.22, 20.90, 0.144, -0.704, -0.720, 18:40:59.419, 1590856859419
178, -6.90, 3.05, -0.60, -2.72, 0.144, -0.704, -0.720, 18:40:59.419, 1590856859419
179, 0.09, 2.93, 6.92, 1.90, 0.144, -0.704, -0.720, 18:40:59.419, 1590856859419
180, 15.63, 19.62, 12.98, 17.10, 0.144, -0.704, -0.720, 18:40:59.419, 1590856859419
181, 14.87, 20.48, 18.03, 13.05, 0.144, -0.704, -0.720, 18:40:59.433, 1590856859433
182, -6.94, -2.68, -2.16, -4.24, 0.144, -0.704, -0.720, 18:40:59.433, 1590856859433
183, 1.15, 4.82, 1.41, 6.15, 0.144, -0.704, -0.720, 18:40:59.448, 1590856859448
184, 17.01, 16.79, 13.23, 19.30, 0.144, -0.704, -0.720, 18:40:59.448, 1590856859448
185, 18.67, 22.02, 16.55, 24.30, 0.144, -0.704, -0.720, 18:40:59.449, 1590856859449
186, -3.40, 0.98, -2.16, -8.91, 0.320, -0.576, -0.832, 18:40:59.449, 1590856859449
187, -1.89, 6.70, 4.24, 5.41, 0.320, -0.576, -0.832, 18:40:59.463, 1590856859463
188, 9.42, 16.42, 11.27, 15.25, 0.320, -0.576, -0.832, 18:40:59.463, 1590856859463
189, 23.26, 23.45, 17.84, 24.45, 0.320, -0.576, -0.832, 18:40:59.495, 1590856859495
190, -4.02, 4.86, -2.60, 1.27, 0.320, -0.576, -0.832, 18:40:59.495, 1590856859495
191, 0.00, 1.79, 2.22, -3.75, 0.320, -0.576, -0.832, 18:40:59.495, 1590856859495
192, 14.40, 17.79, 13.77, 18.03, 0.320, -0.576, -0.832, 18:40:59.495, 1590856859495
193, 13.45, 19.48, 13.02, 27.24, 0.320, -0.576, -0.832, 18:40:59.496, 1590856859496
194, -7.70, 0.60, -4.76, 2.74, 0.320, -0.576, -0.832, 18:40:59.496, 1590856859496
195, -2.00, 1.90, -2.20, 0.84, 0.320, -0.576, -0.832, 18:40:59.497, 1590856859497
196, 12.82, 16.85, 12.73, 18.51, 0.320, -0.576, -0.832, 18:40:59.497, 1590856859497
197, 15.56, 20.29, 13.19, 20.68, 0.320, -0.576, -0.832, 18:40:59.508, 1590856859508
198, -7.46, 1.99, -6.38, -1.53, 0.320, -0.576, -0.832, 18:40:59.508, 1590856859508
199, -1.54, 8.26, 3.41, 1.77, 0.320, -0.576, -0.832, 18:40:59.523, 1590856859523
200, 13.13, 17.68, 15.53, 15.48, 0.320, -0.576, -0.832, 18:40:59.523, 1590856859523
0, 16.55, 19.29, 13.12, 17.00, 0.320, -0.576, -0.832, 18:40:59.524, 1590856859524
1, -3.21, 4.94, -1.27, 0.23, 0.320, -0.576, -0.832, 18:40:59.538, 1590856859538
2, -1.80, 0.19, -0.38, 0.10, 0.320, -0.576, -0.832, 18:40:59.538, 1590856859538
3, 13.79, 18.77, 14.44, 19.08, 0.320, -0.576, -0.832, 18:40:59.553, 1590856859553
4, 21.09, 26.11, 17.12, 21.98, 0.320, -0.576, -0.832, 18:40:59.553, 1590856859553
5, -11.76, 1.94, -3.16, -1.48, 0.320, -0.576, -0.832, 18:40:59.554, 1590856859554
6, -5.61, 5.61, 2.59, 1.43, 0.368, -0.464, -0.944, 18:40:59.554, 1590856859554
7, 14.45, 19.97, 15.56, 18.19, 0.368, -0.464, -0.944, 18:40:59.568, 1590856859568
8, 17.29, 19.45, 15.17, 19.51, 0.368, -0.464, -0.944, 18:40:59.568, 1590856859568
9, -2.65, 1.78, -1.38, -3.35, 0.368, -0.464, -0.944, 18:40:59.583, 1590856859583
10, 3.31, 7.41, -2.78, 1.32, 0.368, -0.464, -0.944, 18:40:59.583, 1590856859583
11, 15.02, 18.52, 14.31, 14.48, 0.368, -0.464, -0.944, 18:40:59.585, 1590856859585
12, 21.36, 19.61, 14.58, 18.96, 0.368, -0.464, -0.944, 18:40:59.585, 1590856859585
13, -5.99, -2.31, -3.30, -3.17, 0.368, -0.464, -0.944, 18:40:59.614, 1590856859614
14, -2.71, -0.65, 5.86, 0.37, 0.368, -0.464, -0.944, 18:40:59.614, 1590856859614
15, 12.69, 20.13, 15.19, 16.54, 0.368, -0.464, -0.944, 18:40:59.614, 1590856859614
16, 22.40, 23.31, 11.30, 20.45, 0.368, -0.464, -0.944, 18:40:59.614, 1590856859614
17, -4.80, 2.46, -5.65, -3.15, 0.368, -0.464, -0.944, 18:40:59.615, 1590856859615
18, -1.01, 5.35, -2.48, 6.00, 0.368, -0.464, -0.944, 18:40:59.615, 1590856859615
19, 17.11, 15.73, 12.32, 19.57, 0.368, -0.464, -0.944, 18:40:59.628, 1590856859628
20, 19.71, 19.40, 18.46, 19.05, 0.368, -0.464, -0.944, 18:40:59.628, 1590856859628
21, -5.59, -3.31, -5.25, -5.12, 0.368, -0.464, -0.944, 18:40:59.643, 1590856859643
22, -1.55, 4.11, -3.29, 4.95, 0.368, -0.464, -0.944, 18:40:59.643, 1590856859643
23, 15.52, 20.35, 15.79, 19.01, 0.368, -0.464, -0.944, 18:40:59.644, 1590856859644
24, 18.59, 21.07, 17.67, 21.67, 0.368, -0.464, -0.944, 18:40:59.644, 1590856859644
25, -6.27, 2.93, -2.77, -0.15, 0.368, -0.464, -0.944, 18:40:59.658, 1590856859658
26, -6.27, -1.78, 0.51, -0.01, 0.384, -0.400, -0.976, 18:40:59.658, 1590856859658
27, 13.87, 19.85, 17.14, 13.47, 0.384, -0.400, -0.976, 18:40:59.674, 1590856859674
28, 20.17, 24.61, 15.50, 21.71, 0.384, -0.400, -0.976, 18:40:59.674, 1590856859674
29, -5.11, -0.23, -3.49, 0.42, 0.384, -0.400, -0.976, 18:40:59.674, 1590856859674
30, -0.05, 7.03, 2.65, 3.04, 0.384, -0.400, -0.976, 18:40:59.674, 1590856859674
31, 16.32, 19.51, 15.77, 18.76, 0.384, -0.400, -0.976, 18:40:59.688, 1590856859688
32, 14.95, 23.96, 20.12, 19.80, 0.384, -0.400, -0.976, 18:40:59.688, 1590856859688
33, -7.45, -1.61, -2.09, -2.51, 0.384, -0.400, -0.976, 18:40:59.703, 1590856859703
34, -0.63, 4.52, 1.53, 6.13, 0.384, -0.400, -0.976, 18:40:59.703, 1590856859703
35, 14.45, 15.31, 13.33, 15.11, 0.384, -0.400, -0.976, 18:40:59.704, 1590856859704
36, 17.71, 19.48, 14.54, 20.66, 0.384, -0.400, -0.976, 18:40:59.704, 1590856859704
37, -8.51, -3.71, -2.03, -2.43, 0.384, -0.400, -0.976, 18:40:59.718, 1590856859718
38, -4.20, 2.20, 1.12, 1.24, 0.384, -0.400, -0.976, 18:40:59.718, 1590856859718
39, 12.60, 19.02, 15.48, 18.14, 0.384, -0.400, -0.976, 18:40:59.735, 1590856859735
40, 19.69, 23.47, 23.27, 17.81, 0.384, -0.400, -0.976, 18:40:59.735, 1590856859735
41, -6.60, 1.14, -1.65, -1.36, 0.384, -0.400, -0.976, 18:40:59.735, 1590856859735
42, -6.36, 5.05, -0.11, 5.47, 0.384, -0.400, -0.976, 18:40:59.735, 1590856859735
43, 15.25, 17.02, 13.66, 19.90, 0.384, -0.400, -0.976, 18:40:59.748, 1590856859748
44, 21.56, 22.45, 19.71, 26.44, 0.384, -0.400, -0.976, 18:40:59.748, 1590856859748
45, -10.97, -3.17, -6.08, -3.73, 0.384, -0.400, -0.976, 18:40:59.780, 1590856859780
46, -0.50, 0.87, 1.00, 5.92, 0.384, -0.336, -1.072, 18:40:59.780, 1590856859780
47, 15.51, 18.30, 13.62, 13.06, 0.384, -0.336, -1.072, 18:40:59.780, 1590856859780
48, 19.41, 19.11, 22.07, 22.12, 0.384, -0.336, -1.072, 18:40:59.780, 1590856859780
49, -7.00, 3.78, -4.94, -5.31, 0.384, -0.336, -1.072, 18:40:59.781, 1590856859781
50, -2.36, 4.25, 4.82, 3.20, 0.384, -0.336, -1.072, 18:40:59.781, 1590856859781
51, 15.40, 13.99, 12.45, 11.23, 0.384, -0.336, -1.072, 18:40:59.782, 1590856859782
52, 20.98, 21.08, 15.43, 19.46, 0.384, -0.336, -1.072, 18:40:59.782, 1590856859782
53, -8.07, -5.31, -8.79, -3.82, 0.384, -0.336, -1.072, 18:40:59.793, 1590856859793
54, -0.60, 4.82, 4.49, 4.50, 0.384, -0.336, -1.072, 18:40:59.793, 1590856859793
55, 12.09, 19.17, 9.65, 17.51, 0.384, -0.336, -1.072, 18:40:59.808, 1590856859808
56, 17.78, 20.23, 17.58, 26.91, 0.384, -0.336, -1.072, 18:40:59.808, 1590856859808
57, -13.68, 1.80, -6.78, 2.30, 0.384, -0.336, -1.072, 18:40:59.823, 1590856859823
58, -4.73, 6.74, 0.41, 0.68, 0.384, -0.336, -1.072, 18:40:59.823, 1590856859823
59, 13.39, 19.74, 12.63, 20.47, 0.384, -0.336, -1.072, 18:40:59.824, 1590856859824
60, 16.26, 20.64, 17.18, 21.59, 0.384, -0.336, -1.072, 18:40:59.824, 1590856859824
61, -5.08, -0.39, -3.44, -7.03, 0.384, -0.336, -1.072, 18:40:59.839, 1590856859839
62, -3.74, 2.95, -1.94, -1.06, 0.384, -0.336, -1.072, 18:40:59.839, 1590856859839
63, 14.91, 18.52, 14.17, 19.62, 0.384, -0.336, -1.072, 18:40:59.853, 1590856859853
64, 18.65, 19.33, 15.64, 24.58, 0.384, -0.336, -1.072, 18:40:59.853, 1590856859853
65, -7.57, -1.95, -5.93, -4.48, 0.384, -0.336, -1.072, 18:40:59.854, 1590856859854
66, -1.85, 4.50, -2.35, 4.01, 0.368, -0.304, -1.168, 18:40:59.854, 1590856859854
67, 14.75, 20.44, 14.94, 12.38, 0.368, -0.304, -1.168, 18:40:59.868, 1590856859868
68, 19.68, 26.56, 14.71, 16.95, 0.368, -0.304, -1.168, 18:40:59.868, 1590856859868
69, -6.66, -2.24, -2.61, 0.43, 0.368, -0.304, -1.168, 18:40:59.884, 1590856859884
70, 3.59, 6.00, 2.17, 5.59, 0.368, -0.304, -1.168, 18:40:59.884, 1590856859884
71, 14.97, 14.81, 13.10, 21.56, 0.368, -0.304, -1.168, 18:40:59.885, 1590856859885
72, 20.80, 22.92, 20.14, 23.69, 0.368, -0.304, -1.168, 18:40:59.885, 1590856859885
73, -4.86, -1.06, -5.90, -7.64, 0.368, -0.304, -1.168, 18:40:59.898, 1590856859898
74, 0.78, 2.03, -2.36, 1.68, 0.368, -0.304, -1.168, 18:40:59.898, 1590856859898
75, 17.19, 11.91, 12.67, 15.37, 0.368, -0.304, -1.168, 18:40:59.913, 1590856859913
76, 24.63, 23.86, 24.19, 19.49, 0.368, -0.304, -1.168, 18:40:59.913, 1590856859913
77, -12.61, -9.56, -6.24, -5.81, 0.368, -0.304, -1.168, 18:40:59.914, 1590856859914
78, -2.45, -0.60, 0.81, 0.91, 0.368, -0.304, -1.168, 18:40:59.914, 1590856859914
79, 19.50, 20.01, 16.57, 19.56, 0.368, -0.304, -1.168, 18:40:59.928, 1590856859928
80, 21.42, 21.69, 19.24, 17.20, 0.368, -0.304, -1.168, 18:40:59.928, 1590856859928
81, -10.78, -1.95, -9.82, -6.93, 0.368, -0.304, -1.168, 18:40:59.943, 1590856859943
82, -0.70, 4.03, -0.17, 1.92, 0.368, -0.304, -1.168, 18:40:59.943, 1590856859943
83, 16.03, 15.86, 13.48, 19.08, 0.368, -0.304, -1.168, 18:40:59.944, 1590856859944
84, 25.63, 21.75, 19.80, 24.86, 0.368, -0.304, -1.168, 18:40:59.944, 1590856859944
85, -9.95, -3.30, -7.31, -7.78, 0.368, -0.304, -1.168, 18:40:59.958, 1590856859958
86, 1.58, 3.87, 1.56, -1.28, 0.272, -0.240, -1.184, 18:40:59.958, 1590856859958
87, 18.38, 21.67, 13.78, 17.14, 0.272, -0.240, -1.184, 18:40:59.973, 1590856859973
88, 25.16, 23.33, 18.04, 24.98, 0.272, -0.240, -1.184, 18:40:59.973, 1590856859973
89, -12.00, -7.43, -5.32, -0.89, 0.272, -0.240, -1.184, 18:40:59.974, 1590856859974
90, 0.53, 4.78, -3.59, 0.94, 0.272, -0.240, -1.184, 18:40:59.974, 1590856859974
91, 17.00, 21.82, 16.45, 19.72, 0.272, -0.240, -1.184, 18:40:59.988, 1590856859988
92, 19.15, 24.82, 17.26, 24.35, 0.272, -0.240, -1.184, 18:40:59.988, 1590856859988
93, -11.75, -2.14, -9.06, -8.87, 0.272, -0.240, -1.184, 18:41:00.004, 1590856860004
94, 0.12, 1.62, -1.43, 8.06, 0.272, -0.240, -1.184, 18:41:00.004, 1590856860004
95, 18.25, 22.45, 20.94, 22.87, 0.272, -0.240, -1.184, 18:41:00.004, 1590856860004
96, 22.72, 25.84, 20.40, 26.07, 0.272, -0.240, -1.184, 18:41:00.004, 1590856860004
97, -13.41, -4.64, -8.65, -9.66, 0.272, -0.240, -1.184, 18:41:00.018, 1590856860018
98, -5.60, 5.72, -6.48, -2.11, 0.272, -0.240, -1.184, 18:41:00.018, 1590856860018
99, 20.43, 17.38, 18.91, 19.12, 0.272, -0.240, -1.184, 18:41:00.033, 1590856860033
100, 26.25, 25.36, 23.22, 23.02, 0.272, -0.240, -1.184, 18:41:00.033, 1590856860033
101, -11.31, -3.36, -8.80, -8.27, 0.272, -0.240, -1.184, 18:41:00.034, 1590856860034
102, -3.84, -1.64, 1.51, 0.59, 0.272, -0.240, -1.184, 18:41:00.034, 1590856860034
103, 19.05, 21.98, 16.66, 22.18, 0.272, -0.240, -1.184, 18:41:00.048, 1590856860048
104, 26.14, 27.74, 20.55, 22.75, 0.272, -0.240, -1.184, 18:41:00.048, 1590856860048
105, -14.47, -1.62, -8.93, -4.77, 0.272, -0.240, -1.184, 18:41:00.064, 1590856860064
106, -0.77, 5.93, 1.85, -0.45, 0.144, -0.304, -1.312, 18:41:00.064, 1590856860064
107, 18.49, 20.16, 16.35, 22.62, 0.144, -0.304, -1.312, 18:41:00.064, 1590856860064
108, 26.15, 24.26, 22.70, 26.10, 0.144, -0.304, -1.312, 18:41:00.064, 1590856860064
109, -11.64, -2.15, -5.59, -5.16, 0.144, -0.304, -1.312, 18:41:00.078, 1590856860078
110, -3.54, -3.09, -3.33, 1.26, 0.144, -0.304, -1.312, 18:41:00.078, 1590856860078
111, 20.74, 24.57, 18.45, 26.07, 0.144, -0.304, -1.312, 18:41:00.094, 1590856860094
112, 24.72, 23.66, 23.28, 26.16, 0.144, -0.304, -1.312, 18:41:00.094, 1590856860094
113, -16.58, -9.80, -8.89, -6.75, 0.144, -0.304, -1.312, 18:41:00.094, 1590856860094
114, -5.89, 1.99, -0.92, -0.26, 0.144, -0.304, -1.312, 18:41:00.094, 1590856860094
115, 19.81, 21.42, 15.41, 19.76, 0.144, -0.304, -1.312, 18:41:00.108, 1590856860108
116, 20.91, 25.29, 20.86, 24.16, 0.144, -0.304, -1.312, 18:41:00.108, 1590856860108
117, -16.05, -3.47, -10.61, -4.58, 0.144, -0.304, -1.312, 18:41:00.123, 1590856860123
118, -2.52, 0.51, -1.83, -2.69, 0.144, -0.304, -1.312, 18:41:00.123, 1590856860123
119, 16.13, 15.97, 13.53, 20.50, 0.144, -0.304, -1.312, 18:41:00.124, 1590856860124
120, 27.36, 30.04, 24.40, 26.85, 0.144, -0.304, -1.312, 18:41:00.124, 1590856860124
121, -13.24, -9.36, -14.42, -7.69, 0.144, -0.304, -1.312, 18:41:00.138, 1590856860138
122, -9.88, 1.20, -2.55, -1.54, 0.144, -0.304, -1.312, 18:41:00.138, 1590856860138
123, 22.35, 20.83, 18.82, 21.31, 0.144, -0.304, -1.312, 18:41:00.153, 1590856860153
124, 24.75, 24.46, 23.14, 25.82, 0.144, -0.304, -1.312, 18:41:00.153, 1590856860153
125, -20.60, -6.53, -7.90, -9.99, 0.144, -0.304, -1.312, 18:41:00.168, 1590856860168
126, -5.18, -2.01, -0.98, -4.47, 0.064, -0.352, -1.168, 18:41:00.168, 1590856860168
127, 21.72, 19.41, 19.17, 18.12, 0.064, -0.352, -1.168, 18:41:00.169, 1590856860169
128, 26.24, 28.97, 19.47, 22.25, 0.064, -0.352, -1.168, 18:41:00.169, 1590856860169
129, -11.01, -5.65, -10.20, -12.32, 0.064, -0.352, -1.168, 18:41:00.183, 1590856860183
130, -3.90, 5.16, 3.24, 4.56, 0.064, -0.352, -1.168, 18:41:00.183, 1590856860183
131, 20.66, 21.62, 14.63, 19.29, 0.064, -0.352, -1.168, 18:41:00.184, 1590856860184
132, 30.50, 32.47, 24.94, 32.50, 0.064, -0.352, -1.168, 18:41:00.184, 1590856860184
133, -18.72, -11.57, -9.02, -9.59, 0.064, -0.352, -1.168, 18:41:00.198, 1590856860198
134, -5.51, 1.70, 1.03, -1.13, 0.064, -0.352, -1.168, 18:41:00.198, 1590856860198
135, 18.00, 22.84, 18.54, 20.78, 0.064, -0.352, -1.168, 18:41:00.213, 1590856860213
136, 26.12, 28.82, 21.76, 28.17, 0.064, -0.352, -1.168, 18:41:00.213, 1590856860213
137, -17.88, -4.74, -8.72, -8.67, 0.064, -0.352, -1.168, 18:41:00.228, 1590856860228
138, -3.80, 3.29, -2.56, 8.28, 0.064, -0.352, -1.168, 18:41:00.228, 1590856860228
139, 25.76, 23.02, 18.56, 17.73, 0.064, -0.352, -1.168, 18:41:00.229, 1590856860229
140, 25.96, 26.43, 23.11, 30.91, 0.064, -0.352, -1.168, 18:41:00.229, 1590856860229
141, -16.99, -7.80, -10.71, -4.26, 0.064, -0.352, -1.168, 18:41:00.243, 1590856860243
142, -4.07, 2.92, -0.85, 0.53, 0.064, -0.352, -1.168, 18:41:00.243, 1590856860243
143, 15.69, 22.41, 19.33, 17.30, 0.064, -0.352, -1.168, 18:41:00.244, 1590856860244
144, 29.96, 27.23, 27.19, 29.67, 0.064, -0.352, -1.168, 18:41:00.244, 1590856860244
145, -16.34, -8.77, -13.99, -12.88, 0.064, -0.352, -1.168, 18:41:00.258, 1590856860258
146, -5.19, -0.90, 1.60, -1.25, -0.032, -0.400, -1.024, 18:41:00.258, 1590856860258
147, 21.07, 24.19, 19.19, 22.51, -0.032, -0.400, -1.024, 18:41:00.290, 1590856860290
148, 30.74, 25.04, 16.88, 27.39, -0.032, -0.400, -1.024, 18:41:00.290, 1590856860290
149, -20.82, -9.13, -12.87, -13.65, -0.032, -0.400, -1.024, 18:41:00.290, 1590856860290
150, -7.50, 1.79, -0.79, -2.67, -0.032, -0.400, -1.024, 18:41:00.290, 1590856860290
151, 18.78, 19.67, 26.60, 26.59, -0.032, -0.400, -1.024, 18:41:00.291, 1590856860291
152, 25.20, 27.58, 27.22, 34.32, -0.032, -0.400, -1.024, 18:41:00.291, 1590856860291
153, -20.23, -14.68, -10.49, -11.85, -0.032, -0.400, -1.024, 18:41:00.292, 1590856860292
154, -0.27, 1.94, 0.22, 4.41, -0.032, -0.400, -1.024, 18:41:00.292, 1590856860292
155, 20.47, 23.24, 15.97, 15.50, -0.032, -0.400, -1.024, 18:41:00.303, 1590856860303
156, 31.34, 32.79, 24.04, 32.60, -0.032, -0.400, -1.024, 18:41:00.303, 1590856860303
157, -16.27, -13.61, -13.61, -11.76, -0.032, -0.400, -1.024, 18:41:00.318, 1590856860318
158, -6.31, 1.48, 1.79, 3.40, -0.032, -0.400, -1.024, 18:41:00.318, 1590856860318
159, 17.70, 22.02, 19.40, 13.92, -0.032, -0.400, -1.024, 18:41:00.334, 1590856860334
160, 27.44, 28.28, 23.32, 26.74, -0.032, -0.400, -1.024, 18:41:00.334, 1590856860334
161, -14.29, -12.52, -12.11, -13.21, -0.032, -0.400, -1.024, 18:41:00.335, 1590856860335
162, -0.73, -2.04, -1.67, -3.31, -0.032, -0.400, -1.024, 18:41:00.335, 1590856860335
163, 23.60, 25.25, 18.25, 17.44, -0.032, -0.400, -1.024, 18:41:00.348, 1590856860348
164, 29.40, 26.28, 23.60, 27.40, -0.032, -0.400, -1.024, 18:41:00.348, 1590856860348
165, -18.54, -9.52, -16.36, -12.73, -0.032, -0.400, -1.024, 18:41:00.380, 1590856860380
166, -5.79, -0.82, -4.76, 1.55, -0.112, -0.480, -0.816, 18:41:00.380, 1590856860380
167, 20.71, 25.63, 18.18, 19.14, -0.112, -0.480, -0.816, 18:41:00.380, 1590856860380
168, 26.93, 31.04, 25.23, 29.31, -0.112, -0.480, -0.816, 18:41:00.380, 1590856860380
169, -20.61, -11.71, -9.57, -13.28, -0.112, -0.480, -0.816, 18:41:00.381, 1590856860381
170, -0.71, 1.65, -3.50, 3.21, -0.112, -0.480, -0.816, 18:41:00.381, 1590856860381
171, 22.81, 22.02, 15.95, 20.15, -0.112, -0.480, -0.816, 18:41:00.382, 1590856860382
172, 31.22, 27.03, 28.06, 28.26, -0.112, -0.480, -0.816, 18:41:00.382, 1590856860382
173, -23.03, -15.64, -15.67, -15.62, -0.112, -0.480, -0.816, 18:41:00.408, 1590856860408
174, -2.79, 3.63, 4.14, -0.20, -0.112, -0.480, -0.816, 18:41:00.408, 1590856860408
175, 21.64, 23.49, 24.66, 22.43, -0.112, -0.480, -0.816, 18:41:00.409, 1590856860409
176, 28.05, 29.88, 24.27, 28.95, -0.112, -0.480, -0.816, 18:41:00.409, 1590856860409
177, -15.64, -12.01, -15.31, -11.01, -0.112, -0.480, -0.816, 18:41:00.423, 1590856860423
178, -1.60, -1.80, -1.52, -3.63, -0.112, -0.480, -0.816, 18:41:00.423, 1590856860423
179, 21.30, 21.23, 21.91, 21.47, -0.112, -0.480, -0.816, 18:41:00.424, 1590856860424
180, 25.31, 25.70, 25.23, 31.43, -0.112, -0.480, -0.816, 18:41:00.424, 1590856860424
181, -17.88, -7.12, -16.09, -10.68, -0.112, -0.480, -0.816, 18:41:00.438, 1590856860438
182, -1.23, 1.49, -2.71, 4.81, -0.112, -0.480, -0.816, 18:41:00.438, 1590856860438
183, 23.02, 22.11, 19.78, 23.28, -0.112, -0.480, -0.816, 18:41:00.453, 1590856860453
184, 30.43, 28.33, 22.60, 23.86, -0.112, -0.480, -0.816, 18:41:00.453, 1590856860453
185, -22.91, -15.06, -13.61, -12.87, -0.112, -0.480, -0.816, 18:41:00.454, 1590856860454
186, 0.99, -0.04, 0.48, 2.08, -0.160, -0.528, -0.672, 18:41:00.454, 1590856860454
187, 22.42, 23.23, 18.34, 23.12, -0.160, -0.528, -0.672, 18:41:00.468, 1590856860468
188, 29.59, 29.55, 23.60, 27.21, -0.160, -0.528, -0.672, 18:41:00.468, 1590856860468
189, -18.14, -13.43, -14.03, -16.78, -0.160, -0.528, -0.672, 18:41:00.484, 1590856860484
190, -5.06, 3.73, 2.20, 0.75, -0.160, -0.528, -0.672, 18:41:00.484, 1590856860484
191, 23.80, 25.21, 21.80, 23.19, -0.160, -0.528, -0.672, 18:41:00.484, 1590856860484
192, 27.63, 31.75, 25.71, 26.10, -0.160, -0.528, -0.672, 18:41:00.484, 1590856860484
193, -21.63, -11.29, -17.26, -8.80, -0.160, -0.528, -0.672, 18:41:00.497, 1590856860497
194, -5.00, 0.49, 1.13, 3.40, -0.160, -0.528, -0.672, 18:41:00.497, 1590856860497
195, 27.53, 24.63, 19.84, 24.96, -0.160, -0.528, -0.672, 18:41:00.513, 1590856860513
196, 25.96, 28.93, 27.19, 29.34, -0.160, -0.528, -0.672, 18:41:00.513, 1590856860513
197, -19.17, -11.02, -14.32, -12.59, -0.160, -0.528, -0.672, 18:41:00.514, 1590856860514
198, -4.69, 1.84, -2.28, 0.86, -0.160, -0.528, -0.672, 18:41:00.514, 1590856860514
199, 22.67, 23.27, 19.47, 18.99, -0.160, -0.528, -0.672, 18:41:00.528, 1590856860528
200, 27.40, 27.89, 25.12, 25.77, -0.160, -0.528, -0.672, 18:41:00.529, 1590856860529
0, -16.67, -6.04, -13.91, -14.50, -0.160, -0.528, -0.672, 18:41:00.529, 1590856860529
1, 2.22, 2.87, -2.09, 7.27, -0.160, -0.528, -0.672, 18:41:00.559, 1590856860559
2, 15.14, 22.19, 14.04, 18.68, -0.160, -0.528, -0.672, 18:41:00.559, 1590856860559
3, 26.26, 30.60, 26.08, 23.61, -0.160, -0.528, -0.672, 18:41:00.560, 1590856860560
4, -23.08, -9.39, -13.93, -16.28, -0.160, -0.528, -0.672, 18:41:00.560, 1590856860560
5, -4.70, 1.32, -3.08, 3.27, -0.160, -0.528, -0.672, 18:41:00.560, 1590856860560
6, 20.88, 23.96, 17.01, 21.26, -0.192, -0.576, -0.624, 18:41:00.560, 1590856860560
7, 25.39, 32.11, 17.00, 28.06, -0.192, -0.576, -0.624, 18:41:00.573, 1590856860573
8, -16.09, -4.54, -10.90, -6.31, -0.192, -0.576, -0.624, 18:41:00.573, 1590856860573
9, -6.63, 2.23, 0.79, -4.56, -0.192, -0.576, -0.624, 18:41:00.588, 1590856860588
10, 22.06, 19.18, 21.79, 20.31, -0.192, -0.576, -0.624, 18:41:00.588, 1590856860588
11, 23.34, 25.14, 19.76, 29.19, -0.192, -0.576, -0.624, 18:41:00.589, 1590856860589
12, -15.75, -7.19, -13.01, -15.31, -0.192, -0.576, -0.624, 18:41:00.589, 1590856860589
13, 1.43, -0.24, 3.52, 1.51, -0.192, -0.576, -0.624, 18:41:00.603, 1590856860603
14, 20.69, 17.01, 16.24, 20.61, -0.192, -0.576, -0.624, 18:41:00.603, 1590856860603
15, 27.13, 26.63, 16.32, 28.53, -0.192, -0.576, -0.624, 18:41:00.618, 1590856860618
16, -15.82, -11.24, -14.44, -4.06, -0.192, -0.576, -0.624, 18:41:00.618, 1590856860618
17, 0.95, 4.64, -4.43, 1.69, -0.192, -0.576, -0.624, 18:41:00.619, 1590856860619
18, 17.73, 20.01, 18.27, 18.63, -0.192, -0.576, -0.624, 18:41:00.619, 1590856860619
19, 24.03, 22.96, 23.83, 22.83, -0.192, -0.576, -0.624, 18:41:00.633, 1590856860633
20, -16.82, -10.89, -13.18, -4.97, -0.192, -0.576, -0.624, 18:41:00.633, 1590856860633
21, -4.94, 3.79, -2.93, 2.95, -0.192, -0.576, -0.624, 18:41:00.649, 1590856860649
22, 22.82, 20.30, 17.44, 21.72, -0.192, -0.576, -0.624, 18:41:00.649, 1590856860649
23, 23.38, 27.33, 21.21, 23.62, -0.192, -0.576, -0.624, 18:41:00.649, 1590856860649
24, -17.24, -9.84, -13.34, -8.24, -0.192, -0.576, -0.624, 18:41:00.649, 1590856860649
25, -3.56, 3.14, -2.52, 0.80, -0.192, -0.576, -0.624, 18:41:00.663, 1590856860663
26, 15.14, 15.96, 11.66, 15.32, -0.176, -0.560, -0.528, 18:41:00.663, 1590856860663
27, 27.37, 22.89, 18.50, 23.25, -0.176, -0.560, -0.528, 18:41:00.678, 1590856860678
28, -14.71, -6.20, -9.01, -6.38, -0.176, -0.560, -0.528, 18:41:00.678, 1590856860678
29, -0.57, -0.74, -5.90, 3.45, -0.176, -0.560, -0.528, 18:41:00.679, 1590856860679
30, 19.51, 14.59, 15.51, 19.41, -0.176, -0.560, -0.528, 18:41:00.679, 1590856860679
31, 26.32, 25.55, 22.64, 21.81, -0.176, -0.560, -0.528, 18:41:00.693, 1590856860693
32, -17.37, -13.32, -11.42, -6.70, -0.176, -0.560, -0.528, 18:41:00.693, 1590856860693
33, -2.49, 8.11, 1.41, 0.81, -0.176, -0.560, -0.528, 18:41:00.708, 1590856860708
34, 16.99, 18.18, 17.93, 25.41, -0.176, -0.560, -0.528, 18:41:00.708, 1590856860708
35, 22.25, 24.43, 24.36, 25.75, -0.176, -0.560, -0.528, 18:41:00.723, 1590856860723
36, -17.05, -8.50, -11.13, -12.85, -0.176, -0.560, -0.528, 18:41:00.723, 1590856860723
37, -0.21, 4.30, 5.10, 5.48, -0.176, -0.560, -0.528, 18:41:00.724, 1590856860724
38, 17.80, 20.01, 14.16, 17.16, -0.176, -0.560, -0.528, 18:41:00.724, 1590856860724
39, 26.10, 30.27, 22.01, 24.62, -0.176, -0.560, -0.528, 18:41:00.739, 1590856860739
40, -16.78, -5.85, -10.25, -6.37, -0.176, -0.560, -0.528, 18:41:00.739, 1590856860739
41, -2.09, 6.06, -2.88, 1.51, -0.176, -0.560, -0.528, 18:41:00.739, 1590856860739
42, 18.08, 18.91, 18.31, 19.26, -0.176, -0.560, -0.528, 18:41:00.739, 1590856860739
43, 22.72, 24.48, 19.59, 27.53, -0.176, -0.560, -0.528, 18:41:00.752, 1590856860752
44, -12.28, -9.31, -9.02, -8.06, -0.176, -0.560, -0.528, 18:41:00.752, 1590856860752
45, 1.69, 5.80, 1.93, 2.87, -0.176, -0.560, -0.528, 18:41:00.800, 1590856860800
46, 16.59, 15.31, 18.34, 19.79, -0.128, -0.560, -0.416, 18:41:00.800, 1590856860800
47, 24.43, 26.74, 22.52, 23.96, -0.128, -0.560, -0.416, 18:41:00.802, 1590856860802
48, -13.57, -6.84, -7.12, -7.17, -0.128, -0.560, -0.416, 18:41:00.802, 1590856860802
49, -4.62, 6.46, 0.28, 3.38, -0.128, -0.560, -0.416, 18:41:00.802, 1590856860802
50, 14.33, 17.44, 13.28, 16.95, -0.128, -0.560, -0.416, 18:41:00.802, 1590856860802
51, 26.14, 27.19, 21.85, 25.09, -0.128, -0.560, -0.416, 18:41:00.802, 1590856860802
52, -12.04, -3.85, -3.90, -9.55, -0.128, -0.560, -0.416, 18:41:00.802, 1590856860802
53, -0.18, 8.30, -1.63, 5.20, -0.128, -0.560, -0.416, 18:41:00.813, 1590856860813
