%OpenBCI Raw EEG Data
%Number of channels = 4
%Sample Rate = 200.0 Hz
%First Column = SampleIndex
%Last Column = Timestamp 
%Other Columns = EEG data in microvolts followed by Accel Data (in G) interleaved with Aux Data
0, 55.60, 49.26, 46.74, 53.39, 0.016, -0.016, -1.040, 18:42:50.135, 1590856970135
1, 17.76, 13.36, 11.45, 21.91, 0.016, -0.016, -1.040, 18:42:50.149, 1590856970149
2, -52.40, -32.09, -37.13, -45.33, 0.016, -0.016, -1.040, 18:42:50.149, 1590856970149
3, 3.63, 11.06, 4.09, 6.00, 0.016, -0.016, -1.040, 18:42:50.180, 1590856970180
4, 51.62, 48.85, 42.90, 57.97, 0.016, -0.016, -1.040, 18:42:50.180, 1590856970180
5, 29.76, 30.26, 29.92, 26.60, 0.016, -0.016, -1.040, 18:42:50.181, 1590856970181
6, -54.18, -41.08, -41.50, -52.36, 0.016, -0.016, -1.040, 18:42:50.181, 1590856970181
7, -0.37, 5.65, 4.01, 5.50, 0.016, -0.016, -1.040, 18:42:50.181, 1590856970181
8, 62.21, 56.47, 53.27, 64.92, 0.016, -0.016, -1.040, 18:42:50.181, 1590856970181
9, 22.83, 27.98, 19.53, 28.63, 0.016, -0.016, -1.040, 18:42:50.194, 1590856970194
10, -63.05, -39.58, -47.16, -53.30, 0.016, -0.016, -1.040, 18:42:50.194, 1590856970194
11, 5.22, 15.06, 8.53, 11.18, 0.016, -0.016, -1.040, 18:42:50.195, 1590856970195
12, 61.39, 55.21, 49.02, 57.07, 0.016, -0.016, -1.040, 18:42:50.195, 1590856970195
13, 18.70, 23.02, 10.07, 18.21, 0.016, -0.016, -1.040, 18:42:50.209, 1590856970209
14, -49.47, -34.92, -39.68, -48.03, 0.016, -0.016, -1.040, 18:42:50.209, 1590856970209
15, 3.98, 8.56, 6.28, 5.43, 0.016, -0.016, -1.040, 18:42:50.224, 1590856970224
16, 54.17, 46.33, 47.12, 52.20, 0.016, -0.016, -1.040, 18:42:50.224, 1590856970224
17, 25.02, 28.82, 28.39, 28.32, 0.016, -0.016, -1.040, 18:42:50.225, 1590856970225
18, -55.55, -39.05, -41.37, -47.85, 0.016, -0.016, -1.040, 18:42:50.225, 1590856970225
19, -2.04, 2.98, 0.42, 0.69, 0.016, -0.016, -1.040, 18:42:50.239, 1590856970239
20, 59.09, 53.18, 49.73, 58.23, 0.016, -0.016, -1.040, 18:42:50.239, 1590856970239
21, 20.32, 24.71, 15.23, 24.85, 0.016, -0.016, -1.040, 18:42:50.255, 1590856970255
22, -63.17, -41.71, -44.26, -50.68, 0.016, -0.016, -1.040, 18:42:50.255, 1590856970255
23, 8.15, 14.12, 11.23, 8.87, 0.016, -0.016, -1.040, 18:42:50.255, 1590856970255
24, 52.47, 49.02, 43.91, 55.03, 0.016, -0.016, -1.040, 18:42:50.255, 1590856970255
25, 16.59, 24.11, 14.69, 20.84, 0.016, -0.016, -1.040, 18:42:50.269, 1590856970269
26, -52.60, -33.10, -37.47, -43.81, 0.000, -0.016, -0.528, 18:42:50.269, 1590856970269
27, 4.19, 6.11, 5.06, 7.45, 0.000, -0.016, -0.528, 18:42:50.285, 1590856970285
28, 44.25, 48.66, 44.23, 61.30, 0.000, -0.016, -0.528, 18:42:50.285, 1590856970285
29, 29.10, 26.03, 22.74, 37.05, 0.000, -0.016, -0.528, 18:42:50.285, 1590856970285
30, -55.36, -42.40, -48.55, -47.64, 0.000, -0.016, -0.528, 18:42:50.285, 1590856970285
31, -0.74, 3.19, 0.90, 7.52, 0.000, -0.016, -0.528, 18:42:50.299, 1590856970299
32, 61.60, 54.26, 53.33, 57.03, 0.000, -0.016, -0.528, 18:42:50.299, 1590856970299
33, 20.52, 26.25, 19.85, 23.57, 0.000, -0.016, -0.528, 18:42:50.314, 1590856970314
34, -62.74, -42.05, -49.91, -54.20, 0.000, -0.016, -0.528, 18:42:50.314, 1590856970314
35, 6.41, 15.13, 8.03, 4.48, 0.000, -0.016, -0.528, 18:42:50.315, 1590856970315
36, 55.58, 48.90, 44.08, 55.59, 0.000, -0.016, -0.528, 18:42:50.315, 1590856970315
37, 22.74, 13.55, 13.41, 26.25, 0.000, -0.016, -0.528, 18:42:50.329, 1590856970329
38, -53.02, -34.81, -39.14, -46.53, 0.000, -0.016, -0.528, 18:42:50.329, 1590856970329
39, 1.94, 8.89, 4.55, 8.16, 0.000, -0.016, -0.528, 18:42:50.344, 1590856970344
40, 52.58, 47.80, 46.65, 52.47, 0.000, -0.016, -0.528, 18:42:50.344, 1590856970344
41, 29.55, 27.76, 26.89, 28.76, 0.000, -0.016, -0.528, 18:42:50.345, 1590856970345
42, -59.25, -40.16, -43.35, -50.02, 0.000, -0.016, -0.528, 18:42:50.345, 1590856970345
43, -2.38, 3.28, 0.77, 4.99, 0.000, -0.016, -0.528, 18:42:50.359, 1590856970359
44, 57.51, 55.21, 53.01, 59.62, 0.000, -0.016, -0.528, 18:42:50.359, 1590856970359
45, 25.96, 25.70, 21.16, 28.07, 0.000, -0.016, -0.528, 18:42:50.375, 1590856970375
46, -61.66, -43.78, -49.97, -52.58, 0.016, -0.016, -0.800, 18:42:50.375, 1590856970375
47, 7.88, 14.69, 9.50, 11.00, 0.016, -0.016, -0.800, 18:42:50.375, 1590856970375
48, 52.37, 48.96, 50.85, 54.15, 0.016, -0.016, -0.800, 18:42:50.375, 1590856970375
49, 18.56, 19.72, 17.82, 21.41, 0.016, -0.016, -0.800, 18:42:50.389, 1590856970389
50, -51.25, -34.69, -35.67, -53.16, 0.016, -0.016, -0.800, 18:42:50.389, 1590856970389
51, 0.15, 11.43, 1.54, 1.51, 0.016, -0.016, -0.800, 18:42:50.405, 1590856970405
52, 46.30, 45.80, 42.01, 52.03, 0.016, -0.016, -0.800, 18:42:50.405, 1590856970405
53, 28.82, 29.85, 29.99, 28.13, 0.016, -0.016, -0.800, 18:42:50.405, 1590856970405
54, -58.49, -39.99, -47.33, -50.20, 0.016, -0.016, -0.800, 18:42:50.405, 1590856970405
55, -0.89, 2.03, 4.06, 6.70, 0.016, -0.016, -0.800, 18:42:50.419, 1590856970419
56, 60.01, 54.45, 50.20, 57.44, 0.016, -0.016, -0.800, 18:42:50.419, 1590856970419
57, 20.40, 26.10, 18.01, 25.78, 0.016, -0.016, -0.800, 18:42:50.434, 1590856970434
58, -59.95, -40.42, -40.97, -51.75, 0.016, -0.016, -0.800, 18:42:50.434, 1590856970434
59, 11.63, 14.46, 11.80, 8.04, 0.016, -0.016, -0.800, 18:42:50.450, 1590856970450
60, 54.48, 47.81, 40.58, 54.24, 0.016, -0.016, -0.800, 18:42:50.450, 1590856970450
61, 17.03, 18.87, 18.45, 28.67, 0.016, -0.016, -0.800, 18:42:50.450, 1590856970450
62, -55.51, -36.03, -40.13, -44.17, 0.016, -0.016, -0.800, 18:42:50.450, 1590856970450
63, 3.59, 4.56, 6.24, 3.24, 0.016, -0.016, -0.800, 18:42:50.465, 1590856970465
64, 50.92, 46.75, 42.12, 54.63, 0.016, -0.016, -0.800, 18:42:50.465, 1590856970465
65, 28.17, 32.63, 27.01, 33.93, 0.016, -0.016, -0.800, 18:42:50.465, 1590856970465
66, -54.49, -36.39, -41.38, -47.11, 0.016, -0.016, -0.912, 18:42:50.465, 1590856970465
67, -1.29, 6.76, 0.15, 2.86, 0.016, -0.016, -0.912, 18:42:50.479, 1590856970479
68, 56.99, 53.75, 44.58, 60.76, 0.016, -0.016, -0.912, 18:42:50.479, 1590856970479
69, 23.86, 27.03, 19.87, 26.09, 0.016, -0.016, -0.912, 18:42:50.495, 1590856970495
70, -61.63, -42.99, -44.80, -46.07, 0.016, -0.016, -0.912, 18:42:50.495, 1590856970495
71, 5.03, 11.77, 14.08, 9.39, 0.016, -0.016, -0.912, 18:42:50.495, 1590856970495
72, 51.66, 44.27, 46.71, 50.63, 0.016, -0.016, -0.912, 18:42:50.495, 1590856970495
73, 20.44, 22.95, 20.79, 24.75, 0.016, -0.016, -0.912, 18:42:50.509, 1590856970509
74, -50.67, -37.13, -38.43, -44.46, 0.016, -0.016, -0.912, 18:42:50.509, 1590856970509
75, 1.17, 6.09, 1.89, 5.48, 0.016, -0.016, -0.912, 18:42:50.524, 1590856970524
76, 42.32, 37.50, 36.86, 43.03, 0.016, -0.016, -0.912, 18:42:50.524, 1590856970524
77, 12.35, 14.15, 14.17, 12.12, 0.016, -0.016, -0.912, 18:42:50.525, 1590856970525
78, 12.18, 12.69, 11.29, 18.76, 0.016, -0.016, -0.912, 18:42:50.525, 1590856970525
79, 8.03, 10.45, 8.09, 11.44, 0.016, -0.016, -0.912, 18:42:50.539, 1590856970539
80, 5.65, 11.82, 3.83, 5.46, 0.016, -0.016, -0.912, 18:42:50.539, 1590856970539
81, -7.94, -0.59, -4.48, -2.40, 0.016, -0.016, -0.912, 18:42:50.555, 1590856970555
82, 10.95, 11.14, 7.10, 14.09, 0.016, -0.016, -0.912, 18:42:50.555, 1590856970555
83, 17.66, 19.35, 14.12, 24.49, 0.016, -0.016, -0.912, 18:42:50.555, 1590856970555
84, 1.86, 4.87, 2.12, 7.71, 0.016, -0.016, -0.912, 18:42:50.555, 1590856970555
85, -9.52, -2.78, -3.31, -6.16, 0.016, -0.016, -0.912, 18:42:50.569, 1590856970569
86, 17.86, 25.76, 18.99, 18.66, 0.016, -0.016, -0.992, 18:42:50.569, 1590856970569
87, 14.36, 14.52, 7.33, 18.07, 0.016, -0.016, -0.992, 18:42:50.585, 1590856970585
88, -2.02, -0.11, -4.98, 1.92, 0.016, -0.016, -0.992, 18:42:50.585, 1590856970585
89, -0.68, 10.27, 1.13, 4.05, 0.016, -0.016, -0.992, 18:42:50.585, 1590856970585
90, 11.95, 18.41, 6.34, 13.72, 0.016, -0.016, -0.992, 18:42:50.585, 1590856970585
91, 10.61, 15.81, 6.60, 15.63, 0.016, -0.016, -0.992, 18:42:50.615, 1590856970615
92, 3.00, 9.66, 4.24, 8.04, 0.016, -0.016, -0.992, 18:42:50.615, 1590856970615
93, -9.89, 4.76, -1.50, -2.82, 0.016, -0.016, -0.992, 18:42:50.616, 1590856970616
94, 8.47, 17.91, 7.12, 8.97, 0.016, -0.016, -0.992, 18:42:50.616, 1590856970616
95, 21.01, 21.32, 15.08, 20.03, 0.016, -0.016, -0.992, 18:42:50.616, 1590856970616
96, 2.23, 5.29, 2.26, 4.23, 0.016, -0.016, -0.992, 18:42:50.616, 1590856970616
97, -12.04, -2.04, -6.21, -5.83, 0.016, -0.016, -0.992, 18:42:50.629, 1590856970629
98, 14.91, 22.64, 18.23, 22.71, 0.016, -0.016, -0.992, 18:42:50.629, 1590856970629
99, 8.60, 13.20, 10.61, 15.58, 0.016, -0.016, -0.992, 18:42:50.644, 1590856970644
100, -1.33, 0.37, -3.79, -0.13, 0.016, -0.016, -0.992, 18:42:50.644, 1590856970644
101, -0.16, 6.28, -1.21, 7.04, 0.016, -0.016, -0.992, 18:42:50.645, 1590856970645
102, 8.80, 16.19, 11.45, 17.99, 0.016, -0.016, -0.992, 18:42:50.645, 1590856970645
103, 5.12, 15.13, 2.08, 14.39, 0.016, -0.016, -0.992, 18:42:50.659, 1590856970659
104, 3.05, 7.89, 9.47, 9.33, 0.016, -0.016, -0.992, 18:42:50.659, 1590856970659
105, -5.78, -2.80, -1.40, -2.57, 0.016, -0.016, -0.992, 18:42:50.675, 1590856970675
106, 9.39, 13.03, 14.06, 15.91, 0.016, -0.016, -1.008, 18:42:50.675, 1590856970675
107, 18.75, 22.01, 18.99, 19.66, 0.016, -0.016, -1.008, 18:42:50.676, 1590856970676
108, -2.45, 6.12, 2.18, 6.18, 0.016, -0.016, -1.008, 18:42:50.676, 1590856970676
109, -12.68, -8.90, -4.63, -4.75, 0.016, -0.016, -1.008, 18:42:50.689, 1590856970689
110, 21.77, 25.45, 21.38, 22.88, 0.016, -0.016, -1.008, 18:42:50.689, 1590856970689
111, 13.24, 16.57, 13.49, 16.88, 0.016, -0.016, -1.008, 18:42:50.704, 1590856970704
112, -3.61, -2.53, 1.39, 4.26, 0.016, -0.016, -1.008, 18:42:50.704, 1590856970704
113, -0.52, 2.00, 5.55, 5.24, 0.016, -0.016, -1.008, 18:42:50.705, 1590856970705
114, 12.93, 19.36, 13.56, 10.82, 0.016, -0.016, -1.008, 18:42:50.705, 1590856970705
115, 6.85, 13.81, 11.33, 16.34, 0.016, -0.016, -1.008, 18:42:50.719, 1590856970719
116, 5.08, 12.69, 10.01, 9.84, 0.016, -0.016, -1.008, 18:42:50.719, 1590856970719
117, -6.51, 5.42, -1.12, -0.16, 0.016, -0.016, -1.008, 18:42:50.734, 1590856970734
118, 12.40, 10.85, 11.83, 9.62, 0.016, -0.016, -1.008, 18:42:50.734, 1590856970734
119, 15.29, 17.29, 23.18, 25.24, 0.016, -0.016, -1.008, 18:42:50.735, 1590856970735
120, -1.08, 6.06, 6.41, 5.28, 0.016, -0.016, -1.008, 18:42:50.735, 1590856970735
121, -6.94, -2.93, -5.42, -10.03, 0.016, -0.016, -1.008, 18:42:50.749, 1590856970749
122, 21.69, 26.22, 19.12, 21.04, 0.016, -0.016, -1.008, 18:42:50.749, 1590856970749
123, 15.19, 16.18, 12.81, 12.47, 0.016, -0.016, -1.008, 18:42:50.765, 1590856970765
124, 0.13, 2.45, -1.10, 4.22, 0.016, -0.016, -1.008, 18:42:50.765, 1590856970765
125, 0.93, 6.20, 3.63, 9.05, 0.016, -0.016, -1.008, 18:42:50.765, 1590856970765
126, 14.67, 20.09, 9.89, 17.77, 0.016, -0.016, -1.040, 18:42:50.765, 1590856970765
127, 7.56, 12.58, 7.73, 13.78, 0.016, -0.016, -1.040, 18:42:50.779, 1590856970779
128, 4.18, 9.87, 3.23, 12.01, 0.016, -0.016, -1.040, 18:42:50.779, 1590856970779
129, -3.84, -3.19, -2.39, 1.07, 0.016, -0.016, -1.040, 18:42:50.795, 1590856970795
130, 9.99, 15.98, 9.22, 13.18, 0.016, -0.016, -1.040, 18:42:50.795, 1590856970795
131, 20.52, 19.38, 20.81, 20.20, 0.016, -0.016, -1.040, 18:42:50.795, 1590856970795
132, 2.06, 8.63, 3.96, 6.88, 0.016, -0.016, -1.040, 18:42:50.795, 1590856970795
133, -8.45, -5.72, -6.88, -0.44, 0.016, -0.016, -1.040, 18:42:50.825, 1590856970825
134, 22.45, 25.61, 16.47, 22.88, 0.016, -0.016, -1.040, 18:42:50.825, 1590856970825
135, 11.86, 18.61, 12.67, 15.59, 0.016, -0.016, -1.040, 18:42:50.826, 1590856970826
136, -3.34, 1.87, 2.10, 4.15, 0.016, -0.016, -1.040, 18:42:50.826, 1590856970826
137, -4.23, -3.45, -2.34, -0.91, 0.016, -0.016, -1.040, 18:42:50.827, 1590856970827
138, 13.97, 17.50, 14.45, 16.44, 0.016, -0.016, -1.040, 18:42:50.827, 1590856970827
139, 6.74, 13.74, 6.28, 9.99, 0.016, -0.016, -1.040, 18:42:50.839, 1590856970839
140, 6.78, 10.56, 4.02, 10.78, 0.016, -0.016, -1.040, 18:42:50.839, 1590856970839
141, -1.96, -4.50, -3.56, -1.47, 0.016, -0.016, -1.040, 18:42:50.855, 1590856970855
142, 10.14, 17.40, 8.63, 14.63, 0.016, -0.016, -1.040, 18:42:50.855, 1590856970855
143, 14.90, 20.20, 18.20, 16.39, 0.016, -0.016, -1.040, 18:42:50.855, 1590856970855
144, 3.64, 7.06, -2.80, 3.41, 0.016, -0.016, -1.040, 18:42:50.855, 1590856970855
145, -5.59, -3.03, -8.72, -3.26, 0.016, -0.016, -1.040, 18:42:50.869, 1590856970869
146, 20.23, 21.58, 17.86, 20.21, 0.016, -0.016, -1.040, 18:42:50.869, 1590856970869
147, 9.81, 19.25, 9.76, 19.57, 0.016, -0.016, -1.040, 18:42:50.884, 1590856970884
148, -2.07, 1.39, 0.09, 5.31, 0.016, -0.016, -1.040, 18:42:50.884, 1590856970884
149, 5.03, 2.90, 2.88, 3.71, 0.016, -0.016, -1.040, 18:42:50.900, 1590856970900
150, 14.37, 16.89, 12.25, 15.03, 0.016, -0.016, -1.040, 18:42:50.900, 1590856970900
151, 8.29, 12.19, 11.36, 12.27, 0.016, -0.016, -1.040, 18:42:50.900, 1590856970900
152, 10.79, 11.20, 4.56, 12.98, 0.016, -0.016, -1.040, 18:42:50.900, 1590856970900
153, -2.98, 0.25, -5.19, -0.22, 0.016, -0.016, -1.040, 18:42:50.914, 1590856970914
154, 9.72, 18.16, 12.58, 13.16, 0.016, -0.016, -1.040, 18:42:50.914, 1590856970914
155, 15.66, 21.52, 14.59, 22.27, 0.016, -0.016, -1.040, 18:42:50.915, 1590856970915
156, -0.56, 7.43, 6.73, 9.60, 0.016, -0.016, -1.040, 18:42:50.915, 1590856970915
157, -10.34, -2.47, -7.85, -0.67, 0.016, -0.016, -1.040, 18:42:50.929, 1590856970929
158, 21.30, 28.00, 14.66, 21.91, 0.016, -0.016, -1.040, 18:42:50.929, 1590856970929
159, 14.71, 17.52, 12.58, 15.59, 0.016, -0.016, -1.040, 18:42:50.945, 1590856970945
160, -4.28, 6.02, -2.53, 3.41, 0.016, -0.016, -1.040, 18:42:50.945, 1590856970945
161, -1.80, 10.42, 0.65, 2.65, 0.016, -0.016, -1.040, 18:42:50.945, 1590856970945
162, 10.61, 15.87, 15.69, 13.09, 0.016, -0.016, -1.040, 18:42:50.945, 1590856970945
163, 4.39, 14.55, 4.23, 13.99, 0.016, -0.016, -1.040, 18:42:50.959, 1590856970959
164, 7.15, 9.82, 4.24, 10.97, 0.016, -0.016, -1.040, 18:42:50.959, 1590856970959
165, -8.47, 0.86, -9.02, -0.54, 0.016, -0.016, -1.040, 18:42:50.975, 1590856970975
166, 11.90, 12.58, 7.82, 9.38, 0.016, -0.016, -1.040, 18:42:50.975, 1590856970975
167, 14.32, 23.41, 17.88, 22.32, 0.016, -0.016, -1.040, 18:42:50.975, 1590856970975
168, -1.91, 5.43, 3.74, 6.49, 0.016, -0.016, -1.040, 18:42:50.975, 1590856970975
169, -9.49, -2.90, -10.26, -1.49, 0.016, -0.016, -1.040, 18:42:51.005, 1590856971005
170, 17.19, 24.85, 12.41, 15.69, 0.016, -0.016, -1.040, 18:42:51.005, 1590856971005
171, 14.36, 15.93, 6.51, 13.03, 0.016, -0.016, -1.040, 18:42:51.006, 1590856971006
172, 0.86, 4.58, 2.61, 5.42, 0.016, -0.016, -1.040, 18:42:51.006, 1590856971006
173, 0.26, 7.48, 5.37, 6.02, 0.016, -0.016, -1.040, 18:42:51.007, 1590856971007
174, 12.35, 23.29, 12.97, 12.29, 0.016, -0.016, -1.040, 18:42:51.007, 1590856971007
175, 4.79, 14.90, 3.99, 12.55, 0.016, -0.016, -1.040, 18:42:51.019, 1590856971019
176, 5.48, 11.21, 9.28, 14.25, 0.016, -0.016, -1.040, 18:42:51.019, 1590856971019
177, -5.95, 4.96, 2.08, 2.04, 0.016, -0.016, -1.040, 18:42:51.035, 1590856971035
178, 9.00, 13.00, 9.08, 13.20, 0.016, -0.016, -1.040, 18:42:51.035, 1590856971035
179, 18.98, 18.96, 15.54, 20.21, 0.016, -0.016, -1.040, 18:42:51.036, 1590856971036
180, 3.66, 5.11, 2.65, 6.87, 0.016, -0.016, -1.040, 18:42:51.036, 1590856971036
181, -6.66, 3.32, -8.87, -3.26, 0.016, -0.016, -1.040, 18:42:51.049, 1590856971049
182, 19.72, 21.36, 19.13, 17.86, 0.016, -0.016, -1.040, 18:42:51.049, 1590856971049
183, 15.03, 14.02, 7.35, 12.95, 0.016, -0.016, -1.040, 18:42:51.065, 1590856971065
184, -0.79, 6.91, 0.82, 5.25, 0.016, -0.016, -1.040, 18:42:51.065, 1590856971065
185, 1.83, 7.72, 3.06, 2.84, 0.016, -0.016, -1.040, 18:42:51.065, 1590856971065
186, 11.98, 14.85, 10.22, 11.31, 0.016, -0.016, -1.040, 18:42:51.065, 1590856971065
187, 3.69, 12.15, 3.67, 9.32, 0.016, -0.016, -1.040, 18:42:51.079, 1590856971079
188, 8.11, 16.09, 9.15, 15.68, 0.016, -0.016, -1.040, 18:42:51.079, 1590856971079
189, -1.83, 0.54, 0.44, -1.66, 0.016, -0.016, -1.040, 18:42:51.095, 1590856971095
190, 6.12, 14.56, 7.31, 8.40, 0.016, -0.016, -1.040, 18:42:51.095, 1590856971095
191, 16.48, 21.02, 13.05, 16.35, 0.016, -0.016, -1.040, 18:42:51.095, 1590856971095
192, 0.83, 7.35, 8.53, 8.42, 0.016, -0.016, -1.040, 18:42:51.095, 1590856971095
193, -8.05, 1.48, -1.06, -1.64, 0.016, -0.016, -1.040, 18:42:51.109, 1590856971109
194, 11.99, 19.60, 15.93, 17.38, 0.016, -0.016, -1.040, 18:42:51.109, 1590856971109
195, 12.83, 12.56, 13.29, 19.61, 0.016, -0.016, -1.040, 18:42:51.124, 1590856971124
196, -1.96, 6.44, 3.10, 8.92, 0.016, -0.016, -1.040, 18:42:51.124, 1590856971124
197, 1.70, 7.93, 4.99, 8.85, 0.016, -0.016, -1.040, 18:42:51.125, 1590856971125
198, 8.24, 16.16, 9.48, 9.41, 0.016, -0.016, -1.040, 18:42:51.125, 1590856971125
199, 11.35, 7.60, 5.25, 10.57, 0.016, -0.016, -1.040, 18:42:51.140, 1590856971140
200, 8.75, 11.45, 9.18, 14.86, 0.016, -0.016, -1.040, 18:42:51.140, 1590856971140
0, -0.73, -1.47, 0.65, 7.23, 0.016, -0.016, -1.040, 18:42:51.141, 1590856971141
1, 6.84, 9.92, 8.00, 7.60, 0.016, -0.016, -1.040, 18:42:51.170, 1590856971170
2, 18.77, 16.24, 15.34, 15.26, 0.016, -0.016, -1.040, 18:42:51.170, 1590856971170
3, 6.34, 4.98, 5.54, 8.16, 0.016, -0.016, -1.040, 18:42:51.171, 1590856971171
4, -5.30, 0.92, -1.13, 2.98, 0.016, -0.016, -1.040, 18:42:51.171, 1590856971171
5, 14.99, 20.61, 10.48, 16.25, 0.016, -0.016, -1.040, 18:42:51.172, 1590856971172
6, 7.84, 13.36, 7.35, 11.16, 0.016, -0.016, -1.040, 18:42:51.172, 1590856971172
7, -0.19, 11.34, 7.64, 9.82, 0.016, -0.016, -1.040, 18:42:51.184, 1590856971184
8, 2.68, 10.86, 2.55, 10.77, 0.016, -0.016, -1.040, 18:42:51.184, 1590856971184
9, 6.88, 14.99, 10.46, 10.01, 0.016, -0.016, -1.040, 18:42:51.199, 1590856971199
10, 5.79, 4.00, 4.72, 9.19, 0.016, -0.016, -1.040, 18:42:51.199, 1590856971199
11, 12.75, 16.42, 13.44, 19.05, 0.016, -0.016, -1.040, 18:42:51.200, 1590856971200
12, 1.52, 4.05, 6.11, 5.49, 0.016, -0.016, -1.040, 18:42:51.200, 1590856971200
13, 1.45, 1.13, 2.18, 3.58, 0.016, -0.016, -1.040, 18:42:51.214, 1590856971214
14, 15.39, 18.58, 17.48, 14.30, 0.016, -0.016, -1.040, 18:42:51.214, 1590856971214
15, 8.59, 8.46, 10.41, 13.15, 0.016, -0.016, -1.040, 18:42:51.230, 1590856971230
16, -1.83, 4.62, -0.07, 2.47, 0.016, -0.016, -1.040, 18:42:51.230, 1590856971230
17, 7.21, 13.76, 10.00, 9.50, 0.016, -0.016, -1.040, 18:42:51.230, 1590856971230
18, 6.53, 11.51, 9.64, 12.36, 0.016, -0.016, -1.040, 18:42:51.230, 1590856971230
19, 1.67, 2.01, 7.01, 10.26, 0.016, -0.016, -1.040, 18:42:51.244, 1590856971244
20, 5.78, 12.14, 8.00, 8.64, 0.016, -0.016, -1.040, 18:42:51.244, 1590856971244
21, 5.87, 10.87, 5.27, 5.48, 0.016, -0.016, -1.040, 18:42:51.276, 1590856971276
22, 4.89, 3.89, 2.69, 5.95, 0.016, -0.016, -1.040, 18:42:51.276, 1590856971276
23, 13.16, 16.62, 19.60, 12.74, 0.016, -0.016, -1.040, 18:42:51.276, 1590856971276
24, 2.18, 6.29, 4.67, 3.35, 0.016, -0.016, -1.040, 18:42:51.276, 1590856971276
25, -2.14, 5.41, 5.29, 3.82, 0.016, -0.016, -1.040, 18:42:51.277, 1590856971277
26, 16.36, 13.20, 15.73, 16.32, 0.016, 0.000, -1.056, 18:42:51.277, 1590856971277
27, 3.57, 9.53, 7.10, 12.85, 0.016, 0.000, -1.056, 18:42:51.290, 1590856971290
28, -2.65, 1.51, -1.17, 4.04, 0.016, 0.000, -1.056, 18:42:51.290, 1590856971290
29, 14.37, 17.84, 11.78, 10.52, 0.016, 0.000, -1.056, 18:42:51.291, 1590856971291
30, 8.71, 11.86, 11.13, 12.72, 0.016, 0.000, -1.056, 18:42:51.291, 1590856971291
31, 7.96, 6.57, -1.01, 12.22, 0.016, 0.000, -1.056, 18:42:51.304, 1590856971304
32, 5.70, 7.00, 7.88, 5.84, 0.016, 0.000, -1.056, 18:42:51.304, 1590856971304
33, 6.58, 10.51, 11.20, 12.02, 0.016, 0.000, -1.056, 18:42:51.320, 1590856971320
34, 3.57, 8.27, 7.19, 6.59, 0.016, 0.000, -1.056, 18:42:51.320, 1590856971320
35, 15.57, 14.81, 12.79, 17.96, 0.016, 0.000, -1.056, 18:42:51.321, 1590856971321
36, 3.12, 8.12, 2.61, 6.71, 0.016, 0.000, -1.056, 18:42:51.321, 1590856971321
37, 0.01, 4.93, 4.47, 3.69, 0.016, 0.000, -1.056, 18:42:51.334, 1590856971334
38, 15.23, 15.00, 11.71, 20.21, 0.016, 0.000, -1.056, 18:42:51.334, 1590856971334
39, 5.32, 14.00, 3.12, 11.05, 0.016, 0.000, -1.056, 18:42:51.350, 1590856971350
40, 2.72, 9.10, 4.88, 2.01, 0.016, 0.000, -1.056, 18:42:51.350, 1590856971350
41, 9.08, 17.74, 14.05, 14.36, 0.016, 0.000, -1.056, 18:42:51.350, 1590856971350
42, 3.42, 13.88, 7.49, 9.73, 0.016, 0.000, -1.056, 18:42:51.350, 1590856971350
43, 3.21, 7.20, 0.53, 6.25, 0.016, 0.000, -1.056, 18:42:51.364, 1590856971364
44, 9.39, 12.28, 11.83, 9.89, 0.016, 0.000, -1.056, 18:42:51.364, 1590856971364
45, 9.42, 9.83, 3.81, 8.40, 0.016, 0.000, -1.056, 18:42:51.379, 1590856971379
46, 1.42, 7.58, 7.49, 8.88, 0.016, -0.016, -1.056, 18:42:51.379, 1590856971379
47, 11.42, 15.42, 16.11, 15.51, 0.016, -0.016, -1.056, 18:42:51.380, 1590856971380
48, 1.70, 9.20, 0.49, 5.27, 0.016, -0.016, -1.056, 18:42:51.380, 1590856971380
49, 1.80, 12.44, 8.01, 8.53, 0.016, -0.016, -1.056, 18:42:51.394, 1590856971394
50, 11.79, 11.27, 11.26, 11.75, 0.016, -0.016, -1.056, 18:42:51.394, 1590856971394
51, 5.48, 9.76, 7.09, 7.64, 0.016, -0.016, -1.056, 18:42:51.410, 1590856971410
52, -1.31, 8.76, -1.48, 2.86, 0.016, -0.016, -1.056, 18:42:51.410, 1590856971410
53, 13.67, 18.18, 15.22, 15.17, 0.016, -0.016, -1.056, 18:42:51.411, 1590856971411
54, 5.73, 13.31, 8.88, 8.52, 0.016, -0.016, -1.056, 18:42:51.411, 1590856971411
55, 4.29, 7.32, 2.33, 8.93, 0.016, -0.016, -1.056, 18:42:51.424, 1590856971424
56, 8.67, 11.54, 6.77, 11.90, 0.016, -0.016, -1.056, 18:42:51.424, 1590856971424
57, 5.84, 8.47, 4.80, 11.00, 0.016, -0.016, -1.056, 18:42:51.440, 1590856971440
58, 2.48, 9.08, 2.84, 6.58, 0.016, -0.016, -1.056, 18:42:51.440, 1590856971440
59, 12.98, 14.72, 12.61, 15.54, 0.016, -0.016, -1.056, 18:42:51.440, 1590856971440
60, 3.15, 7.90, 4.82, 5.80, 0.016, -0.016, -1.056, 18:42:51.440, 1590856971440
61, 2.15, 10.01, 6.94, 2.53, 0.016, -0.016, -1.056, 18:42:51.454, 1590856971454
62, 11.57, 13.57, 14.73, 18.21, 0.016, -0.016, -1.056, 18:42:51.454, 1590856971454
63, 3.73, 8.38, 9.08, 13.24, 0.016, -0.016, -1.056, 18:42:51.470, 1590856971470
64, -3.02, 6.71, 2.81, 0.88, 0.016, -0.016, -1.056, 18:42:51.470, 1590856971470
65, 12.69, 16.98, 11.67, 14.85, 0.016, -0.016, -1.056, 18:42:51.470, 1590856971470
66, 5.75, 12.01, 7.17, 9.96, 0.016, -0.016, -1.056, 18:42:51.470, 1590856971470
67, 5.18, 9.49, 2.08, 10.73, 0.016, -0.016, -1.056, 18:42:51.484, 1590856971484
68, 6.43, 13.98, 11.67, 8.98, 0.016, -0.016, -1.056, 18:42:51.484, 1590856971484
69, 11.52, 14.86, 5.30, 11.83, 0.016, -0.016, -1.056, 18:42:51.499, 1590856971499
70, 1.78, 12.49, 6.98, 10.27, 0.016, -0.016, -1.056, 18:42:51.499, 1590856971499
71, 12.62, 13.91, 12.18, 11.78, 0.016, -0.016, -1.056, 18:42:51.500, 1590856971500
72, 1.21, 4.87, 3.07, 1.79, 0.016, -0.016, -1.056, 18:42:51.500, 1590856971500
73, 4.55, 7.94, 6.54, 12.33, 0.016, -0.016, -1.056, 18:42:51.514, 1590856971514
74, 14.51, 18.10, 13.75, 13.37, 0.016, -0.016, -1.056, 18:42:51.514, 1590856971514
75, 6.00, 7.85, 5.87, 7.62, 0.016, -0.016, -1.056, 18:42:51.530, 1590856971530
76, -5.09, 6.54, -0.95, 2.39, 0.016, -0.016, -1.056, 18:42:51.530, 1590856971530
77, 13.86, 17.35, 12.01, 13.68, 0.016, -0.016, -1.056, 18:42:51.530, 1590856971530
78, 4.90, 9.07, 4.27, 9.18, 0.016, -0.016, -1.056, 18:42:51.530, 1590856971530
79, 3.73, 3.07, 1.22, 4.09, 0.016, -0.016, -1.056, 18:42:51.560, 1590856971560
80, 6.39, 13.54, 10.82, 10.92, 0.016, -0.016, -1.056, 18:42:51.560, 1590856971560
81, 9.79, 13.73, 7.93, 13.13, 0.016, -0.016, -1.056, 18:42:51.561, 1590856971561
82, 2.43, 6.33, 6.34, 11.73, 0.016, -0.016, -1.056, 18:42:51.561, 1590856971561
83, 12.22, 18.26, 16.50, 14.03, 0.016, -0.016, -1.056, 18:42:51.561, 1590856971561
84, 0.01, 6.64, 1.84, 3.78, 0.016, -0.016, -1.056, 18:42:51.561, 1590856971561
85, 0.49, 5.76, 5.54, 5.02, 0.016, -0.016, -1.056, 18:42:51.574, 1590856971574
86, 11.56, 15.04, 9.38, 9.18, 0.000, -0.032, -1.088, 18:42:51.574, 1590856971574
87, 4.87, 14.41, 5.41, 9.39, 0.000, -0.032, -1.088, 18:42:51.590, 1590856971590
88, -0.66, 4.94, -0.88, 6.08, 0.000, -0.032, -1.088, 18:42:51.590, 1590856971590
89, 14.94, 18.78, 13.08, 9.95, 0.000, -0.032, -1.088, 18:42:51.605, 1590856971605
90, 9.58, 14.46, 5.95, 7.25, 0.000, -0.032, -1.088, 18:42:51.605, 1590856971605
91, -1.44, 4.12, 2.42, 6.76, 0.000, -0.032, -1.088, 18:42:51.606, 1590856971606
92, 4.43, 13.03, 9.87, 9.68, 0.000, -0.032, -1.088, 18:42:51.606, 1590856971606
93, 10.30, 11.75, 10.60, 11.23, 0.000, -0.032, -1.088, 18:42:51.620, 1590856971620
94, 4.30, 4.98, 5.49, 6.53, 0.000, -0.032, -1.088, 18:42:51.620, 1590856971620
95, 11.95, 14.24, 9.43, 15.87, 0.000, -0.032, -1.088, 18:42:51.620, 1590856971620
96, 4.39, 4.25, 8.58, 5.06, 0.000, -0.032, -1.088, 18:42:51.620, 1590856971620
97, 7.06, 8.68, 3.94, 8.80, 0.000, -0.032, -1.088, 18:42:51.634, 1590856971634
98, 9.45, 14.14, 10.25, 16.72, 0.000, -0.032, -1.088, 18:42:51.634, 1590856971634
99, 6.42, 10.34, 9.61, 10.30, 0.000, -0.032, -1.088, 18:42:51.650, 1590856971650
100, 4.56, -1.04, 1.58, 4.50, 0.000, -0.032, -1.088, 18:42:51.650, 1590856971650
101, 11.59, 17.41, 16.15, 16.60, 0.000, -0.032, -1.088, 18:42:51.650, 1590856971650
102, 7.26, 13.37, 11.35, 10.46, 0.000, -0.032, -1.088, 18:42:51.650, 1590856971650
103, -0.42, 7.53, 3.35, 11.31, 0.000, -0.032, -1.088, 18:42:51.680, 1590856971680
104, 6.33, 10.79, 9.60, 5.19, 0.000, -0.032, -1.088, 18:42:51.680, 1590856971680
105, 4.55, 10.14, 6.64, 8.17, 0.000, -0.032, -1.088, 18:42:51.681, 1590856971681
106, 2.74, 10.72, 1.03, 8.64, -0.016, -0.144, -1.136, 18:42:51.681, 1590856971681
107, 14.04, 17.62, 11.61, 18.60, -0.016, -0.144, -1.136, 18:42:51.682, 1590856971682
108, 4.44, 2.96, 4.98, 4.98, -0.016, -0.144, -1.136, 18:42:51.682, 1590856971682
109, 1.57, 6.53, 1.18, 3.79, -0.016, -0.144, -1.136, 18:42:51.694, 1590856971694
110, 8.56, 15.80, 14.57, 13.30, -0.016, -0.144, -1.136, 18:42:51.694, 1590856971694
111, 4.30, 8.73, 8.06, 10.32, -0.016, -0.144, -1.136, 18:42:51.725, 1590856971725
112, -0.96, 3.66, 4.49, -0.39, -0.016, -0.144, -1.136, 18:42:51.725, 1590856971725
113, 11.74, 16.68, 11.11, 13.10, -0.016, -0.144, -1.136, 18:42:51.726, 1590856971726
114, 11.46, 8.27, 4.79, 8.51, -0.016, -0.144, -1.136, 18:42:51.726, 1590856971726
115, 2.36, 5.54, 1.88, 6.50, -0.016, -0.144, -1.136, 18:42:51.727, 1590856971727
116, 9.46, 12.58, 6.20, 9.70, -0.016, -0.144, -1.136, 18:42:51.727, 1590856971727
117, 3.62, 8.19, 10.05, 10.86, -0.016, -0.144, -1.136, 18:42:51.739, 1590856971739
118, 4.85, 3.49, 5.82, 3.06, -0.016, -0.144, -1.136, 18:42:51.739, 1590856971739
119, 9.44, 14.96, 11.81, 9.00, -0.016, -0.144, -1.136, 18:42:51.740, 1590856971740
120, 3.57, 4.37, 10.32, 5.41, -0.016, -0.144, -1.136, 18:42:51.740, 1590856971740
121, -0.03, -5.30, 3.06, 3.33, -0.016, -0.144, -1.136, 18:42:51.754, 1590856971754
122, 12.33, 16.97, 14.44, 11.58, -0.016, -0.144, -1.136, 18:42:51.754, 1590856971754
123, 8.16, 11.17, 2.06, 3.87, -0.016, -0.144, -1.136, 18:42:51.785, 1590856971785
124, 0.86, 4.63, -1.54, 2.72, -0.016, -0.144, -1.136, 18:42:51.785, 1590856971785
125, 10.10, 16.45, 14.11, 12.57, -0.016, -0.144, -1.136, 18:42:51.786, 1590856971786
126, 5.75, 10.87, 4.73, 6.48, -0.016, -0.144, -1.152, 18:42:51.786, 1590856971786
127, 4.00, 14.08, 0.61, 8.44, -0.016, -0.144, -1.152, 18:42:51.786, 1590856971786
128, 9.71, 17.60, 7.46, 13.58, -0.016, -0.144, -1.152, 18:42:51.786, 1590856971786
129, 6.11, 13.25, 6.41, 4.99, -0.016, -0.144, -1.152, 18:42:51.800, 1590856971800
130, 3.41, 6.26, 3.47, 7.68, -0.016, -0.144, -1.152, 18:42:51.800, 1590856971800
131, 10.94, 12.46, 9.49, 14.34, -0.016, -0.144, -1.152, 18:42:51.800, 1590856971800
132, 9.08, 13.68, 6.18, 8.54, -0.016, -0.144, -1.152, 18:42:51.800, 1590856971800
133, 2.19, 8.10, 6.25, 2.90, -0.016, -0.144, -1.152, 18:42:51.829, 1590856971829
134, 16.21, 18.62, 13.13, 13.98, -0.016, -0.144, -1.152, 18:42:51.829, 1590856971829
135, 8.83, 8.10, 5.39, 7.75, -0.016, -0.144, -1.152, 18:42:51.845, 1590856971845
136, -0.54, 5.33, 3.64, 2.99, -0.016, -0.144, -1.152, 18:42:51.845, 1590856971845
137, 13.24, 15.86, 12.00, 11.93, -0.016, -0.144, -1.152, 18:42:51.846, 1590856971846
138, 6.84, 5.30, 5.85, 5.06, -0.016, -0.144, -1.152, 18:42:51.846, 1590856971846
139, 3.95, 7.25, 1.49, 1.04, -0.016, -0.144, -1.152, 18:42:51.847, 1590856971847
140, 11.00, 13.56, 15.79, 11.36, -0.016, -0.144, -1.152, 18:42:51.847, 1590856971847
141, 8.45, 15.87, 9.28, 12.70, -0.016, -0.144, -1.152, 18:42:51.860, 1590856971860
142, -1.45, 10.43, 3.84, 7.63, -0.016, -0.144, -1.152, 18:42:51.860, 1590856971860
143, 8.20, 11.97, 12.09, 11.94, -0.016, -0.144, -1.152, 18:42:51.861, 1590856971861
144, 1.89, 8.14, 13.36, 2.47, -0.016, -0.144, -1.152, 18:42:51.861, 1590856971861
145, 5.09, 11.09, 20.72, 6.16, -0.016, -0.144, -1.152, 18:42:51.874, 1590856971874
146, 8.26, 17.30, 26.44, 13.42, -0.064, -0.080, -1.152, 18:42:51.874, 1590856971874
147, 6.25, 11.14, 13.75, 3.52, -0.064, -0.080, -1.152, 18:42:51.890, 1590856971890
148, 1.04, 6.90, 6.47, 5.82, -0.064, -0.080, -1.152, 18:42:51.890, 1590856971890
149, 15.42, 21.68, 21.10, 18.24, -0.064, -0.080, -1.152, 18:42:51.891, 1590856971891
150, 2.70, 12.87, 18.66, 8.65, -0.064, -0.080, -1.152, 18:42:51.891, 1590856971891
151, -2.56, 10.41, 13.82, 8.15, -0.064, -0.080, -1.152, 18:42:51.904, 1590856971904
152, 11.52, 16.20, 22.24, 13.35, -0.064, -0.080, -1.152, 18:42:51.904, 1590856971904
153, 12.21, 9.81, 11.35, 11.49, -0.064, -0.080, -1.152, 18:42:51.919, 1590856971919
154, 0.67, 7.64, 8.48, 4.90, -0.064, -0.080, -1.152, 18:42:51.919, 1590856971919
155, 13.69, 18.72, 23.27, 12.06, -0.064, -0.080, -1.152, 18:42:51.935, 1590856971935
156, 5.59, 15.60, 17.90, 7.66, -0.064, -0.080, -1.152, 18:42:51.935, 1590856971935
157, 5.43, 9.23, 12.31, 9.36, -0.064, -0.080, -1.152, 18:42:51.935, 1590856971935
158, 8.33, 11.95, 19.70, 13.57, -0.064, -0.080, -1.152, 18:42:51.935, 1590856971935
159, 3.27, 8.61, 17.20, 6.94, -0.064, -0.080, -1.152, 18:42:51.949, 1590856971949
160, 0.59, 6.60, 10.35, 4.73, -0.064, -0.080, -1.152, 18:42:51.949, 1590856971949
161, 15.05, 25.00, 21.87, 12.18, -0.064, -0.080, -1.152, 18:42:51.950, 1590856971950
162, 3.42, 10.47, 16.57, 8.38, -0.064, -0.080, -1.152, 18:42:51.950, 1590856971950
163, 0.47, 4.25, 18.07, 2.88, -0.064, -0.080, -1.152, 18:42:51.964, 1590856971964
164, 11.31, 20.71, 13.76, 15.19, -0.064, -0.080, -1.152, 18:42:51.964, 1590856971964
165, 3.61, 15.83, 15.41, 12.34, -0.064, -0.080, -1.152, 18:42:51.980, 1590856971980
166, -1.15, 4.06, 2.43, 7.86, -0.080, -0.272, -0.864, 18:42:51.980, 1590856971980
167, 3.81, 13.95, 15.07, 12.01, -0.080, -0.272, -0.864, 18:42:51.980, 1590856971980
168, 0.86, 10.82, 11.26, 10.12, -0.080, -0.272, -0.864, 18:42:51.980, 1590856971980
169, 1.54, 12.83, -2.55, 12.07, -0.080, -0.272, -0.864, 18:42:51.994, 1590856971994
170, 7.22, 14.72, 14.93, 17.89, -0.080, -0.272, -0.864, 18:42:51.994, 1590856971994
171, 1.67, 4.48, 52.79, 11.56, -0.080, -0.272, -0.864, 18:42:52.025, 1590856972025
172, -4.05, 5.93, -50.75, 18.15, -0.080, -0.272, -0.864, 18:42:52.025, 1590856972025
173, 8.80, 9.87, -96.79, 29.49, -0.080, -0.272, -0.864, 18:42:52.026, 1590856972026
174, 6.78, -0.24, -35.70, 13.73, -0.080, -0.272, -0.864, 18:42:52.026, 1590856972026
175, 4.97, 1.67, -16.91, 12.72, -0.080, -0.272, -0.864, 18:42:52.027, 1590856972027
176, 12.80, 14.49, -5.79, 25.66, -0.080, -0.272, -0.864, 18:42:52.027, 1590856972027
177, 11.57, 7.84, -2.46, 30.61, -0.080, -0.272, -0.864, 18:42:52.040, 1590856972040
178, 4.78, -2.78, -8.89, 26.24, -0.080, -0.272, -0.864, 18:42:52.040, 1590856972040
179, 8.86, 9.18, 2.85, 52.21, -0.080, -0.272, -0.864, 18:42:52.040, 1590856972040
180, 9.78, 10.84, 4.85, 41.87, -0.080, -0.272, -0.864, 18:42:52.040, 1590856972040
181, -2.27, 13.12, -2.62, -32.79, -0.080, -0.272, -0.864, 18:42:52.054, 1590856972054
182, 2.47, 16.40, 2.19, -68.52, -0.080, -0.272, -0.864, 18:42:52.054, 1590856972054
183, -4.28, 12.84, 1.29, -37.34, -0.080, -0.272, -0.864, 18:42:52.070, 1590856972070
184, -5.68, 16.76, 2.08, -30.73, -0.080, -0.272, -0.864, 18:42:52.070, 1590856972070
185, 3.08, 24.43, 9.21, -20.54, -0.080, -0.272, -0.864, 18:42:52.070, 1590856972070
186, -1.74, 4.43, 6.82, -13.26, -0.064, -0.768, -0.464, 18:42:52.070, 1590856972070
187, -2.55, -10.81, 7.63, 0.52, -0.064, -0.768, -0.464, 18:42:52.084, 1590856972084
188, 11.99, 5.19, 20.63, 14.04, -0.064, -0.768, -0.464, 18:42:52.084, 1590856972084
189, 5.99, 2.12, 12.11, 8.63, -0.064, -0.768, -0.464, 18:42:52.116, 1590856972116
190, 0.46, -4.87, 10.54, 11.06, -0.064, -0.768, -0.464, 18:42:52.116, 1590856972116
191, 11.20, 12.58, 15.71, 22.31, -0.064, -0.768, -0.464, 18:42:52.116, 1590856972116
192, 6.95, 4.79, 16.45, 20.20, -0.064, -0.768, -0.464, 18:42:52.116, 1590856972116
193, 2.09, 7.10, 8.35, 15.36, -0.064, -0.768, -0.464, 18:42:52.117, 1590856972117
194, 10.22, 10.70, 14.16, 15.05, -0.064, -0.768, -0.464, 18:42:52.117, 1590856972117
195, 4.63, 10.20, 7.91, 13.19, -0.064, -0.768, -0.464, 18:42:52.129, 1590856972129
196, 9.09, 5.85, 10.39, 13.06, -0.064, -0.768, -0.464, 18:42:52.129, 1590856972129
197, 11.36, 16.00, 13.66, 13.00, -0.064, -0.768, -0.464, 18:42:52.130, 1590856972130
198, 8.46, 11.36, 9.89, 9.17, -0.064, -0.768, -0.464, 18:42:52.130, 1590856972130
199, 2.45, 7.56, 4.79, 6.43, -0.064, -0.768, -0.464, 18:42:52.145, 1590856972145
200, 16.00, 15.04, 13.55, 15.66, -0.064, -0.768, -0.464, 18:42:52.145, 1590856972145
0, 3.73, 13.48, 16.01, 12.71, -0.064, -0.768, -0.464, 18:42:52.146, 1590856972146
1, 1.63, 4.90, -0.03, 2.65, -0.064, -0.768, -0.464, 18:42:52.159, 1590856972159
2, 9.46, 15.99, 16.64, 18.12, -0.064, -0.768, -0.464, 18:42:52.159, 1590856972159
3, 8.65, 14.15, 14.43, 16.32, -0.064, -0.768, -0.464, 18:42:52.174, 1590856972174
4, 3.13, 6.42, 4.61, 5.82, -0.064, -0.768, -0.464, 18:42:52.174, 1590856972174
5, 12.49, 14.08, 8.56, 13.00, -0.064, -0.768, -0.464, 18:42:52.175, 1590856972175
6, 7.52, 5.79, -19.68, 14.71, -0.176, -0.800, 0.208, 18:42:52.175, 1590856972175
7, 3.72, 7.85, -2.95, 5.62, -0.176, -0.800, 0.208, 18:42:52.189, 1590856972189
8, 10.29, 11.79, -6.48, 16.43, -0.176, -0.800, 0.208, 18:42:52.189, 1590856972189
9, 2.88, 5.32, 5.87, 5.54, -0.176, -0.800, 0.208, 18:42:52.204, 1590856972204
10, -0.30, 5.31, 2.39, 6.92, -0.176, -0.800, 0.208, 18:42:52.204, 1590856972204
11, 13.35, 21.59, 15.50, 20.44, -0.176, -0.800, 0.208, 18:42:52.205, 1590856972205
12, 5.13, 6.43, 5.13, 7.69, -0.176, -0.800, 0.208, 18:42:52.205, 1590856972205
13, 2.75, 7.25, -0.09, 3.71, -0.176, -0.800, 0.208, 18:42:52.219, 1590856972219
14, 11.30, 12.70, 7.97, 10.58, -0.176, -0.800, 0.208, 18:42:52.219, 1590856972219
15, 12.78, 19.66, 12.38, 15.16, -0.176, -0.800, 0.208, 18:42:52.235, 1590856972235
16, 0.36, 9.29, 1.78, 12.04, -0.176, -0.800, 0.208, 18:42:52.235, 1590856972235
17, 8.28, 15.76, 8.48, 18.30, -0.176, -0.800, 0.208, 18:42:52.236, 1590856972236
18, 2.66, 12.30, -0.73, 22.65, -0.176, -0.800, 0.208, 18:42:52.236, 1590856972236
19, 4.81, 12.81, -0.56, 30.61, -0.176, -0.800, 0.208, 18:42:52.249, 1590856972249
20, 7.57, 24.68, 0.62, 33.57, -0.176, -0.800, 0.208, 18:42:52.249, 1590856972249
21, 5.33, 28.75, -3.55, 48.93, -0.176, -0.800, 0.208, 18:42:52.280, 1590856972280
22, 2.07, 12.16, 4.01, 26.80, -0.176, -0.800, 0.208, 18:42:52.280, 1590856972280
23, 16.13, 22.95, 17.01, 23.46, -0.176, -0.800, 0.208, 18:42:52.282, 1590856972282
24, 1.65, 9.12, 2.38, 5.37, -0.176, -0.800, 0.208, 18:42:52.282, 1590856972282
25, 0.32, 4.09, -1.15, 3.91, -0.176, -0.800, 0.208, 18:42:52.282, 1590856972282
26, 12.66, 14.11, 14.55, 19.84, -0.192, -0.688, 0.544, 18:42:52.282, 1590856972282
27, 11.72, 12.73, 15.89, 12.90, -0.192, -0.688, 0.544, 18:42:52.295, 1590856972295
28, 3.31, 5.67, 4.79, 0.93, -0.192, -0.688, 0.544, 18:42:52.295, 1590856972295
29, 4.37, 8.52, 8.42, 14.79, -0.192, -0.688, 0.544, 18:42:52.295, 1590856972295
30, 12.40, 6.32, 10.44, 28.71, -0.192, -0.688, 0.544, 18:42:52.295, 1590856972295
31, 14.00, 8.99, 19.57, 67.42, -0.192, -0.688, 0.544, 18:42:52.309, 1590856972309
32, 18.63, 14.03, 16.15, 7.99, -0.192, -0.688, 0.544, 18:42:52.309, 1590856972309
33, 22.56, 7.08, 21.87, -72.42, -0.192, -0.688, 0.544, 18:42:52.340, 1590856972340
34, 24.85, 15.35, 17.06, -34.38, -0.192, -0.688, 0.544, 18:42:52.340, 1590856972340
35, 23.38, 23.68, 27.39, 11.50, -0.192, -0.688, 0.544, 18:42:52.341, 1590856972341
36, 2.50, 8.21, 1.16, 1.47, -0.192, -0.688, 0.544, 18:42:52.341, 1590856972341
37, -0.98, 4.37, -3.39, 1.93, -0.192, -0.688, 0.544, 18:42:52.342, 1590856972342
38, 16.35, 13.40, 11.73, 12.85, -0.192, -0.688, 0.544, 18:42:52.342, 1590856972342
39, 18.71, 18.94, 15.83, 18.14, -0.192, -0.688, 0.544, 18:42:52.355, 1590856972355
40, 3.87, 3.25, 3.68, 3.06, -0.192, -0.688, 0.544, 18:42:52.355, 1590856972355
41, 5.63, 10.65, 10.12, 5.31, -0.192, -0.688, 0.544, 18:42:52.355, 1590856972355
42, 7.02, 13.08, 7.48, 6.71, -0.192, -0.688, 0.544, 18:42:52.355, 1590856972355
43, 13.59, 17.56, 6.14, 13.77, -0.192, -0.688, 0.544, 18:42:52.369, 1590856972369
44, 4.54, 7.59, 7.49, 10.02, -0.192, -0.688, 0.544, 18:42:52.369, 1590856972369
45, -0.33, 6.45, 2.52, 5.83, -0.192, -0.688, 0.544, 18:42:52.385, 1590856972385
46, -3.17, 4.84, 0.17, 4.88, -0.208, -0.592, 0.624, 18:42:52.385, 1590856972385
47, 15.04, 19.74, 18.09, 20.14, -0.208, -0.592, 0.624, 18:42:52.385, 1590856972385
48, -2.13, 5.94, 1.28, 5.25, -0.208, -0.592, 0.624, 18:42:52.385, 1590856972385
49, -5.54, 2.29, -3.92, 3.28, -0.208, -0.592, 0.624, 18:42:52.399, 1590856972399
50, 8.74, 8.47, 14.46, 15.61, -0.208, -0.592, 0.624, 18:42:52.399, 1590856972399
51, 12.38, 18.63, 14.21, 22.28, -0.208, -0.592, 0.624, 18:42:52.414, 1590856972414
52, -1.04, 1.87, -1.74, -0.13, -0.208, -0.592, 0.624, 18:42:52.414, 1590856972414
53, 1.89, 11.15, 10.32, 11.01, -0.208, -0.592, 0.624, 18:42:52.415, 1590856972415
54, 3.88, 10.18, 7.73, 9.14, -0.208, -0.592, 0.624, 18:42:52.415, 1590856972415
55, 10.48, 15.19, 12.53, 12.43, -0.208, -0.592, 0.624, 18:42:52.429, 1590856972429
56, 7.23, 10.69, 8.44, 9.19, -0.208, -0.592, 0.624, 18:42:52.429, 1590856972429
57, 2.38, 4.65, 2.96, 4.16, -0.208, -0.592, 0.624, 18:42:52.445, 1590856972445
58, 1.42, 10.34, 4.82, 9.01, -0.208, -0.592, 0.624, 18:42:52.445, 1590856972445
59, 17.38, 20.31, 18.14, 25.94, -0.208, -0.592, 0.624, 18:42:52.445, 1590856972445
60, -0.43, 5.56, -0.84, -0.29, -0.208, -0.592, 0.624, 18:42:52.445, 1590856972445
61, -4.17, 2.97, -3.85, 1.32, -0.208, -0.592, 0.624, 18:42:52.459, 1590856972459
62, 14.99, 14.03, 12.97, 9.54, -0.208, -0.592, 0.624, 18:42:52.459, 1590856972459
63, 21.72, 16.43, 20.61, 17.26, -0.208, -0.592, 0.624, 18:42:52.475, 1590856972475
64, -1.06, 1.54, 2.01, -1.82, -0.208, -0.592, 0.624, 18:42:52.475, 1590856972475
65, 6.79, 9.96, 5.84, 5.31, -0.208, -0.592, 0.624, 18:42:52.475, 1590856972475
66, 6.13, 10.70, 2.74, 9.36, -0.224, -0.576, 0.768, 18:42:52.475, 1590856972475
67, 10.49, 17.02, 13.88, 13.39, -0.224, -0.576, 0.768, 18:42:52.489, 1590856972489
68, -5.40, 9.13, 7.09, 1.47, -0.224, -0.576, 0.768, 18:42:52.489, 1590856972489
69, -8.08, 8.14, 0.46, -0.02, -0.224, -0.576, 0.768, 18:42:52.505, 1590856972505
70, -4.45, 7.04, 4.85, 4.07, -0.224, -0.576, 0.768, 18:42:52.505, 1590856972505
71, 20.89, 25.08, 20.69, 23.13, -0.224, -0.576, 0.768, 18:42:52.505, 1590856972505
72, 2.72, 8.60, 0.92, 6.37, -0.224, -0.576, 0.768, 18:42:52.505, 1590856972505
73, -9.41, 2.95, -9.14, 4.86, -0.224, -0.576, 0.768, 18:42:52.519, 1590856972519
74, 8.32, 18.78, 11.34, 10.47, -0.224, -0.576, 0.768, 18:42:52.519, 1590856972519
75, 14.62, 24.04, 17.33, 25.41, -0.224, -0.576, 0.768, 18:42:52.534, 1590856972534
76, -3.45, -1.17, -2.25, 3.42, -0.224, -0.576, 0.768, 18:42:52.534, 1590856972534
77, 4.67, 8.83, 9.89, 11.99, -0.224, -0.576, 0.768, 18:42:52.535, 1590856972535
78, 3.95, 12.39, 6.74, 8.82, -0.224, -0.576, 0.768, 18:42:52.535, 1590856972535
79, 15.51, 15.15, 13.48, 18.06, -0.224, -0.576, 0.768, 18:42:52.549, 1590856972549
80, 6.94, 6.88, 3.66, 5.89, -0.224, -0.576, 0.768, 18:42:52.549, 1590856972549
81, -2.80, 6.02, -3.64, 3.77, -0.224, -0.576, 0.768, 18:42:52.564, 1590856972564
82, 1.21, 7.69, 6.82, 9.27, -0.224, -0.576, 0.768, 18:42:52.564, 1590856972564
83, 24.89, 25.71, 20.08, 27.18, -0.224, -0.576, 0.768, 18:42:52.565, 1590856972565
84, 0.57, -2.75, -3.13, 1.86, -0.224, -0.576, 0.768, 18:42:52.565, 1590856972565
85, -3.24, -3.42, -5.77, -1.06, -0.224, -0.576, 0.768, 18:42:52.579, 1590856972579
86, 8.19, 17.13, 12.34, 14.53, -0.176, -0.480, 0.768, 18:42:52.579, 1590856972579
87, 21.25, 18.99, 17.09, 21.01, -0.176, -0.480, 0.768, 18:42:52.595, 1590856972595
88, -9.10, -1.21, -3.10, -0.81, -0.176, -0.480, 0.768, 18:42:52.595, 1590856972595
89, 4.45, 10.63, 5.85, 8.59, -0.176, -0.480, 0.768, 18:42:52.595, 1590856972595
90, 8.67, 7.36, 6.98, 7.97, -0.176, -0.480, 0.768, 18:42:52.595, 1590856972595
91, 15.81, 19.99, 16.44, 20.44, -0.176, -0.480, 0.768, 18:42:52.609, 1590856972609
92, -0.81, 8.29, 0.70, 6.30, -0.176, -0.480, 0.768, 18:42:52.609, 1590856972609
93, -0.65, 2.45, 1.14, 2.24, -0.176, -0.480, 0.768, 18:42:52.625, 1590856972625
94, 7.15, 7.70, 2.91, 8.94, -0.176, -0.480, 0.768, 18:42:52.625, 1590856972625
95, 24.98, 28.66, 21.37, 26.95, -0.176, -0.480, 0.768, 18:42:52.625, 1590856972625
96, -2.88, 2.74, 0.45, -0.70, -0.176, -0.480, 0.768, 18:42:52.625, 1590856972625
97, -1.96, 0.30, -3.01, -0.23, -0.176, -0.480, 0.768, 18:42:52.639, 1590856972639
98, 12.47, 14.62, 13.74, 12.55, -0.176, -0.480, 0.768, 18:42:52.639, 1590856972639
99, 22.59, 25.79, 22.99, 21.18, -0.176, -0.480, 0.768, 18:42:52.654, 1590856972654
100, -5.62, -0.10, -1.25, 1.26, -0.176, -0.480, 0.768, 18:42:52.655, 1590856972655
101, 2.20, 7.53, 6.20, 6.39, -0.176, -0.480, 0.768, 18:42:52.655, 1590856972655
102, 4.19, 9.74, 6.07, 11.10, -0.176, -0.480, 0.768, 18:42:52.655, 1590856972655
103, 16.01, 21.05, 13.94, 22.63, -0.176, -0.480, 0.768, 18:42:52.669, 1590856972669
104, -4.56, 7.10, 2.10, 3.04, -0.176, -0.480, 0.768, 18:42:52.669, 1590856972669
105, -1.03, 5.02, 2.70, 1.00, -0.176, -0.480, 0.768, 18:42:52.685, 1590856972685
106, 4.15, 10.13, 6.95, 11.28, -0.224, -0.464, 0.800, 18:42:52.685, 1590856972685
107, 28.31, 24.59, 23.73, 30.99, -0.224, -0.464, 0.800, 18:42:52.686, 1590856972686
108, -8.96, -1.73, -0.67, 0.33, -0.224, -0.464, 0.800, 18:42:52.686, 1590856972686
109, -7.72, 1.67, -3.23, 1.93, -0.224, -0.464, 0.800, 18:42:52.699, 1590856972699
110, 12.71, 14.91, 13.08, 15.29, -0.224, -0.464, 0.800, 18:42:52.699, 1590856972699
111, 21.57, 21.87, 20.97, 23.72, -0.224, -0.464, 0.800, 18:42:52.715, 1590856972715
112, -10.05, -0.97, -8.18, -2.59, -0.224, -0.464, 0.800, 18:42:52.715, 1590856972715
113, 3.48, 6.36, 1.77, 6.52, -0.224, -0.464, 0.800, 18:42:52.715, 1590856972715
114, 8.49, 11.79, 10.65, 11.33, -0.224, -0.464, 0.800, 18:42:52.715, 1590856972715
115, 19.08, 22.44, 18.91, 19.09, -0.224, -0.464, 0.800, 18:42:52.729, 1590856972729
116, -3.83, 4.36, 0.76, 3.14, -0.224, -0.464, 0.800, 18:42:52.729, 1590856972729
117, -0.44, 1.87, -5.43, 3.32, -0.224, -0.464, 0.800, 18:42:52.745, 1590856972745
118, 7.45, 10.20, 6.99, 8.27, -0.224, -0.464, 0.800, 18:42:52.745, 1590856972745
119, 27.97, 28.69, 29.25, 35.11, -0.224, -0.464, 0.800, 18:42:52.745, 1590856972745
120, 0.84, 2.09, -5.21, 0.55, -0.224, -0.464, 0.800, 18:42:52.745, 1590856972745
121, -4.73, -0.85, -5.92, 3.35, -0.224, -0.464, 0.800, 18:42:52.759, 1590856972759
122, 13.61, 17.66, 15.59, 13.35, -0.224, -0.464, 0.800, 18:42:52.759, 1590856972759
123, 19.59, 27.94, 15.03, 23.54, -0.224, -0.464, 0.800, 18:42:52.774, 1590856972774
124, -12.53, -2.43, -6.04, 0.11, -0.224, -0.464, 0.800, 18:42:52.774, 1590856972774
125, 3.58, 8.79, 2.44, 4.99, -0.224, -0.464, 0.800, 18:42:52.775, 1590856972775
126, 11.04, 13.59, 9.30, 11.79, -0.304, -0.384, 0.848, 18:42:52.775, 1590856972775
127, 18.71, 21.92, 17.59, 23.49, -0.304, -0.384, 0.848, 18:42:52.789, 1590856972789
128, 3.05, 1.59, 1.55, 6.35, -0.304, -0.384, 0.848, 18:42:52.789, 1590856972789
129, -2.33, 1.71, 0.13, 2.55, -0.304, -0.384, 0.848, 18:42:52.805, 1590856972805
130, 8.25, 6.51, 5.62, 9.59, -0.304, -0.384, 0.848, 18:42:52.805, 1590856972805
131, 29.87, 27.93, 26.04, 30.15, -0.304, -0.384, 0.848, 18:42:52.806, 1590856972806
132, -4.06, 1.19, -0.36, -2.94, -0.304, -0.384, 0.848, 18:42:52.806, 1590856972806
133, -6.96, -3.02, -2.40, -0.96, -0.304, -0.384, 0.848, 18:42:52.819, 1590856972819
134, 13.86, 18.61, 9.56, 17.94, -0.304, -0.384, 0.848, 18:42:52.819, 1590856972819
135, 24.78, 26.37, 19.14, 27.18, -0.304, -0.384, 0.848, 18:42:52.835, 1590856972835
136, -10.44, -3.67, -8.96, -2.86, -0.304, -0.384, 0.848, 18:42:52.835, 1590856972835
137, 0.37, 12.23, 4.76, 12.54, -0.304, -0.384, 0.848, 18:42:52.835, 1590856972835
138, 4.53, 8.94, 5.42, 9.33, -0.304, -0.384, 0.848, 18:42:52.835, 1590856972835
139, 15.48, 22.55, 12.67, 20.37, -0.304, -0.384, 0.848, 18:42:52.849, 1590856972849
140, -7.43, 0.35, -4.36, 7.21, -0.304, -0.384, 0.848, 18:42:52.849, 1590856972849
141, -4.32, 5.75, -6.90, 2.49, -0.304, -0.384, 0.848, 18:42:52.864, 1590856972864
142, 4.84, 6.96, 0.10, 13.98, -0.304, -0.384, 0.848, 18:42:52.864, 1590856972864
143, 31.44, 31.85, 24.56, 32.51, -0.304, -0.384, 0.848, 18:42:52.865, 1590856972865
144, -5.79, -2.59, -2.04, -2.69, -0.304, -0.384, 0.848, 18:42:52.865, 1590856972865
145, -8.44, -0.98, -6.13, -2.60, -0.304, -0.384, 0.848, 18:42:52.896, 1590856972896
146, 10.05, 14.02, 10.86, 19.27, -0.416, -0.320, 0.896, 18:42:52.896, 1590856972896
147, 23.12, 27.64, 14.69, 30.69, -0.416, -0.320, 0.896, 18:42:52.896, 1590856972896
148, -8.66, -2.94, -9.33, -1.53, -0.416, -0.320, 0.896, 18:42:52.896, 1590856972896
149, 6.76, 5.91, 4.67, 7.26, -0.416, -0.320, 0.896, 18:42:52.897, 1590856972897
150, 12.43, 12.23, 9.58, 12.44, -0.416, -0.320, 0.896, 18:42:52.897, 1590856972897
151, 21.77, 22.25, 21.09, 23.51, -0.416, -0.320, 0.896, 18:42:52.909, 1590856972909
152, 1.67, 3.57, -2.65, -2.70, -0.416, -0.320, 0.896, 18:42:52.909, 1590856972909
153, -2.58, 6.80, -1.07, 3.53, -0.416, -0.320, 0.896, 18:42:52.925, 1590856972925
154, 6.70, 14.19, 8.93, 11.15, -0.416, -0.320, 0.896, 18:42:52.925, 1590856972925
155, 31.12, 33.55, 29.03, 30.28, -0.416, -0.320, 0.896, 18:42:52.925, 1590856972925
156, -7.96, -2.48, -7.08, -3.04, -0.416, -0.320, 0.896, 18:42:52.925, 1590856972925
157, -10.10, -0.15, -10.02, 0.26, -0.416, -0.320, 0.896, 18:42:52.939, 1590856972939
158, 10.02, 18.72, 12.66, 18.05, -0.416, -0.320, 0.896, 18:42:52.939, 1590856972939
159, 25.08, 25.61, 22.14, 27.44, -0.416, -0.320, 0.896, 18:42:52.955, 1590856972955
160, -12.18, -8.83, -12.71, -7.63, -0.416, -0.320, 0.896, 18:42:52.955, 1590856972955
161, 2.07, 8.21, -4.44, 2.77, -0.416, -0.320, 0.896, 18:42:52.955, 1590856972955
162, 8.66, 12.58, 7.02, 9.18, -0.416, -0.320, 0.896, 18:42:52.955, 1590856972955
163, 23.19, 27.46, 22.21, 26.04, -0.416, -0.320, 0.896, 18:42:52.969, 1590856972969
164, -5.19, 3.92, -2.93, -0.34, -0.416, -0.320, 0.896, 18:42:52.969, 1590856972969
165, -6.29, 0.01, -4.82, -4.62, -0.416, -0.320, 0.896, 18:42:52.984, 1590856972984
166, 7.77, 7.94, 3.62, 9.52, -0.448, -0.272, 0.816, 18:42:52.984, 1590856972984
167, 31.98, 36.56, 28.28, 30.76, -0.448, -0.272, 0.816, 18:42:52.985, 1590856972985
168, -8.82, -4.03, -2.98, -4.92, -0.448, -0.272, 0.816, 18:42:52.985, 1590856972985
169, -8.96, -4.89, -5.73, -7.98, -0.448, -0.272, 0.816, 18:42:52.999, 1590856972999
170, 15.39, 20.46, 9.75, 19.92, -0.448, -0.272, 0.816, 18:42:52.999, 1590856972999
171, 29.35, 31.61, 27.38, 36.02, -0.448, -0.272, 0.816, 18:42:53.014, 1590856973014
172, -17.26, -8.12, -10.06, -11.86, -0.448, -0.272, 0.816, 18:42:53.014, 1590856973014
173, 0.99, 7.03, 0.54, 4.80, -0.448, -0.272, 0.816, 18:42:53.015, 1590856973015
174, 10.20, 8.32, 7.58, 11.57, -0.448, -0.272, 0.816, 18:42:53.015, 1590856973015
175, 27.19, 26.90, 25.07, 27.98, -0.448, -0.272, 0.816, 18:42:53.029, 1590856973029
176, -7.59, -1.81, -2.49, -4.06, -0.448, -0.272, 0.816, 18:42:53.029, 1590856973029
177, -2.64, -2.65, -1.35, -5.25, -0.448, -0.272, 0.816, 18:42:53.045, 1590856973045
178, 7.00, 12.95, 8.79, 9.15, -0.448, -0.272, 0.816, 18:42:53.045, 1590856973045
179, 36.57, 40.15, 37.14, 41.27, -0.448, -0.272, 0.816, 18:42:53.045, 1590856973045
180, -14.77, -4.88, -7.08, -8.12, -0.448, -0.272, 0.816, 18:42:53.045, 1590856973045
181, -11.66, -3.86, -7.71, -5.34, -0.448, -0.272, 0.816, 18:42:53.059, 1590856973059
182, 12.64, 21.32, 8.16, 14.62, -0.448, -0.272, 0.816, 18:42:53.059, 1590856973059
183, 33.24, 28.05, 26.13, 37.84, -0.448, -0.272, 0.816, 18:42:53.075, 1590856973075
184, -14.97, -13.17, -15.24, -10.20, -0.448, -0.272, 0.816, 18:42:53.075, 1590856973075
185, -3.92, 4.18, -2.49, -0.42, -0.448, -0.272, 0.816, 18:42:53.075, 1590856973075
186, 9.20, 13.29, 10.45, 21.21, -0.496, -0.240, 0.880, 18:42:53.075, 1590856973075
187, 26.72, 34.45, 21.17, 31.76, -0.496, -0.240, 0.880, 18:42:53.089, 1590856973089
188, -11.52, -1.49, -0.69, -4.52, -0.496, -0.240, 0.880, 18:42:53.089, 1590856973089
189, -7.17, 0.04, -1.68, -4.20, -0.496, -0.240, 0.880, 18:42:53.104, 1590856973104
190, 6.81, 12.56, 12.56, 7.79, -0.496, -0.240, 0.880, 18:42:53.104, 1590856973104
191, 40.57, 45.86, 37.42, 38.73, -0.496, -0.240, 0.880, 18:42:53.105, 1590856973105
192, -15.48, -7.52, -7.25, -7.09, -0.496, -0.240, 0.880, 18:42:53.105, 1590856973105
193, -11.15, -5.02, -3.87, -6.26, -0.496, -0.240, 0.880, 18:42:53.119, 1590856973119
194, 15.74, 16.56, 14.85, 14.74, -0.496, -0.240, 0.880, 18:42:53.119, 1590856973119
195, 32.92, 36.07, 32.61, 39.53, -0.496, -0.240, 0.880, 18:42:53.135, 1590856973135
196, -14.07, -12.68, -9.29, -11.72, -0.496, -0.240, 0.880, 18:42:53.135, 1590856973135
197, -2.30, 3.99, 0.86, -0.33, -0.496, -0.240, 0.880, 18:42:53.136, 1590856973136
198, 10.93, 13.86, 9.16, 12.98, -0.496, -0.240, 0.880, 18:42:53.136, 1590856973136
199, 31.00, 32.28, 30.44, 33.36, -0.496, -0.240, 0.880, 18:42:53.165, 1590856973165
200, -8.53, -0.64, -5.55, -8.51, -0.496, -0.240, 0.880, 18:42:53.165, 1590856973165
0, -9.50, -1.74, -1.46, -3.16, -0.496, -0.240, 0.880, 18:42:53.166, 1590856973166
1, 3.03, 14.75, 6.35, 9.15, -0.496, -0.240, 0.880, 18:42:53.167, 1590856973167
2, 38.37, 38.99, 31.17, 40.55, -0.496, -0.240, 0.880, 18:42:53.167, 1590856973167
3, -14.13, -5.93, -11.70, -7.42, -0.496, -0.240, 0.880, 18:42:53.180, 1590856973180
4, -14.11, -3.01, -12.37, -10.08, -0.496, -0.240, 0.880, 18:42:53.180, 1590856973180
5, 14.34, 18.07, 13.41, 18.35, -0.496, -0.240, 0.880, 18:42:53.180, 1590856973180
6, 38.71, 38.17, 34.22, 38.09, -0.592, -0.288, 0.896, 18:42:53.180, 1590856973180
7, -17.14, -8.61, -13.25, -11.45, -0.592, -0.288, 0.896, 18:42:53.194, 1590856973194
8, -5.37, -1.24, -1.63, 2.29, -0.592, -0.288, 0.896, 18:42:53.194, 1590856973194
9, 11.77, 14.29, 3.86, 15.02, -0.592, -0.288, 0.896, 18:42:53.210, 1590856973210
10, 33.18, 35.89, 28.14, 32.25, -0.592, -0.288, 0.896, 18:42:53.210, 1590856973210
11, -9.66, -4.12, -5.96, -7.87, -0.592, -0.288, 0.896, 18:42:53.210, 1590856973210
12, -5.68, 1.92, 5.09, -13.06, -0.592, -0.288, 0.896, 18:42:53.210, 1590856973210
13, 8.39, 14.07, 21.29, -4.03, -0.592, -0.288, 0.896, 18:42:53.224, 1590856973224
14, 38.78, 43.50, 54.75, 34.47, -0.592, -0.288, 0.896, 18:42:53.224, 1590856973224
15, -10.08, -6.28, 6.78, -15.87, -0.592, -0.288, 0.896, 18:42:53.240, 1590856973240
16, -8.90, -4.38, 11.59, -16.27, -0.592, -0.288, 0.896, 18:42:53.240, 1590856973240
17, 14.49, 24.03, 43.24, 12.05, -0.592, -0.288, 0.896, 18:42:53.241, 1590856973241
18, 36.76, 36.01, 34.73, 39.47, -0.592, -0.288, 0.896, 18:42:53.241, 1590856973241
19, -18.89, -8.39, -11.43, -13.60, -0.592, -0.288, 0.896, 18:42:53.254, 1590856973254
20, -1.77, -2.26, -5.90, -1.85, -0.592, -0.288, 0.896, 18:42:53.254, 1590856973254
21, 12.03, 8.84, 10.53, 13.87, -0.592, -0.288, 0.896, 18:42:53.269, 1590856973269
22, 34.45, 38.03, 30.29, 35.76, -0.592, -0.288, 0.896, 18:42:53.269, 1590856973269
23, -7.60, -2.68, -5.33, -2.25, -0.592, -0.288, 0.896, 18:42:53.270, 1590856973270
24, -11.10, -7.44, -9.96, -7.39, -0.592, -0.288, 0.896, 18:42:53.270, 1590856973270
25, 6.51, 10.31, 3.47, 15.13, -0.592, -0.288, 0.896, 18:42:53.284, 1590856973284
26, 40.72, 40.43, 30.57, 38.91, -0.672, -0.288, 0.784, 18:42:53.284, 1590856973284
27, -11.12, -6.66, -9.23, -10.10, -0.672, -0.288, 0.784, 18:42:53.300, 1590856973300
28, -12.63, -8.57, -13.11, -9.56, -0.672, -0.288, 0.784, 18:42:53.300, 1590856973300
29, 14.69, 18.78, 13.96, 16.40, -0.672, -0.288, 0.784, 18:42:53.300, 1590856973300
30, 36.33, 36.12, 25.78, 36.50, -0.672, -0.288, 0.784, 18:42:53.300, 1590856973300
31, -18.80, -13.20, -14.71, -13.08, -0.672, -0.288, 0.784, 18:42:53.314, 1590856973314
32, -2.04, -1.21, -5.30, -0.88, -0.672, -0.288, 0.784, 18:42:53.314, 1590856973314
33, 6.80, 15.60, 8.50, 15.95, -0.672, -0.288, 0.784, 18:42:53.330, 1590856973330
34, 30.94, 33.59, 24.21, 31.15, -0.672, -0.288, 0.784, 18:42:53.330, 1590856973330
35, -9.83, 0.92, -3.60, -3.79, -0.672, -0.288, 0.784, 18:42:53.330, 1590856973330
36, -11.52, -1.93, -4.31, -1.96, -0.672, -0.288, 0.784, 18:42:53.330, 1590856973330
37, 7.20, 5.65, 6.71, 9.04, -0.672, -0.288, 0.784, 18:42:53.344, 1590856973344
38, 44.82, 39.54, 34.12, 36.42, -0.672, -0.288, 0.784, 18:42:53.344, 1590856973344
39, -11.83, -5.51, -9.18, -6.67, -0.672, -0.288, 0.784, 18:42:53.359, 1590856973359
40, -13.96, -6.80, -10.17, -4.62, -0.672, -0.288, 0.784, 18:42:53.360, 1590856973360
41, 16.66, 18.07, 9.97, 18.58, -0.672, -0.288, 0.784, 18:42:53.360, 1590856973360
42, 39.76, 37.77, 27.67, 36.22, -0.672, -0.288, 0.784, 18:42:53.360, 1590856973360
43, -15.65, -9.54, -14.76, -12.00, -0.672, -0.288, 0.784, 18:42:53.374, 1590856973374
44, -2.96, 4.68, -3.55, -3.27, -0.672, -0.288, 0.784, 18:42:53.374, 1590856973374
45, 11.15, 17.54, 10.96, 11.16, -0.672, -0.288, 0.784, 18:42:53.390, 1590856973390
46, 35.14, 33.42, 27.63, 33.93, -0.720, -0.400, 0.688, 18:42:53.390, 1590856973390
47, -7.25, 0.47, -5.65, -2.40, -0.720, -0.400, 0.688, 18:42:53.390, 1590856973390
48, -8.94, -6.77, -10.47, -1.27, -0.720, -0.400, 0.688, 18:42:53.390, 1590856973390
49, 10.23, 12.82, 4.19, 6.90, -0.720, -0.400, 0.688, 18:42:53.404, 1590856973404
50, 43.14, 43.85, 33.59, 37.08, -0.720, -0.400, 0.688, 18:42:53.404, 1590856973404
51, -12.12, -7.15, -14.32, -10.48, -0.720, -0.400, 0.688, 18:42:53.420, 1590856973420
52, -10.70, -4.86, -7.56, -5.35, -0.720, -0.400, 0.688, 18:42:53.420, 1590856973420
53, 17.92, 18.66, 10.00, 16.93, -0.720, -0.400, 0.688, 18:42:53.421, 1590856973421
54, 35.87, 36.31, 27.47, 34.41, -0.720, -0.400, 0.688, 18:42:53.421, 1590856973421
55, -17.29, -13.75, -14.54, -13.54, -0.720, -0.400, 0.688, 18:42:53.450, 1590856973450
56, -7.84, -1.78, -0.19, -1.22, -0.720, -0.400, 0.688, 18:42:53.450, 1590856973450
57, 7.09, 11.87, 4.47, 10.78, -0.720, -0.400, 0.688, 18:42:53.451, 1590856973451
58, 35.17, 31.10, 25.21, 32.51, -0.720, -0.400, 0.688, 18:42:53.451, 1590856973451
59, -12.56, 2.10, -7.23, 1.37, -0.720, -0.400, 0.688, 18:42:53.452, 1590856973452
60, -10.86, -0.50, -8.61, -5.89, -0.720, -0.400, 0.688, 18:42:53.452, 1590856973452
61, 7.63, 9.31, 3.58, 12.02, -0.720, -0.400, 0.688, 18:42:53.464, 1590856973464
62, 41.77, 38.99, 29.49, 41.52, -0.720, -0.400, 0.688, 18:42:53.464, 1590856973464
63, -8.64, -8.96, -12.12, -7.35, -0.720, -0.400, 0.688, 18:42:53.479, 1590856973479
64, -12.53, -6.93, -10.53, -8.61, -0.720, -0.400, 0.688, 18:42:53.479, 1590856973479
65, 16.55, 13.53, 14.47, 13.48, -0.720, -0.400, 0.688, 18:42:53.480, 1590856973480
66, 35.53, 35.90, 31.21, 39.16, -0.688, -0.352, 0.608, 18:42:53.480, 1590856973480
67, -17.54, -11.39, -14.05, -10.93, -0.688, -0.352, 0.608, 18:42:53.494, 1590856973494
68, -0.05, -1.11, -3.28, 2.82, -0.688, -0.352, 0.608, 18:42:53.494, 1590856973494
69, 11.72, 13.20, 7.63, 12.94, -0.688, -0.352, 0.608, 18:42:53.510, 1590856973510
70, 35.38, 32.63, 26.11, 36.65, -0.688, -0.352, 0.608, 18:42:53.510, 1590856973510
71, -7.96, 1.18, -5.71, -3.95, -0.688, -0.352, 0.608, 18:42:53.510, 1590856973510
72, -11.30, -2.86, -10.68, -6.51, -0.688, -0.352, 0.608, 18:42:53.510, 1590856973510
73, 6.97, 9.67, 8.21, 13.76, -0.688, -0.352, 0.608, 18:42:53.524, 1590856973524
74, 39.37, 43.28, 35.82, 41.84, -0.688, -0.352, 0.608, 18:42:53.524, 1590856973524
75, -13.82, -4.12, -7.63, -8.24, -0.688, -0.352, 0.608, 18:42:53.540, 1590856973540
76, -12.68, -5.65, -12.07, -7.01, -0.688, -0.352, 0.608, 18:42:53.540, 1590856973540
77, 17.44, 18.19, 13.83, 19.50, -0.688, -0.352, 0.608, 18:42:53.540, 1590856973540
78, 38.40, 36.30, 30.96, 39.27, -0.688, -0.352, 0.608, 18:42:53.540, 1590856973540
79, -18.69, -7.31, -11.62, -7.81, -0.688, -0.352, 0.608, 18:42:53.554, 1590856973554
80, -5.42, -0.10, -1.50, -0.74, -0.688, -0.352, 0.608, 18:42:53.554, 1590856973554
81, 10.16, 14.25, 13.49, 14.24, -0.688, -0.352, 0.608, 18:42:53.569, 1590856973569
82, 41.76, 36.07, 32.90, 33.83, -0.688, -0.352, 0.608, 18:42:53.569, 1590856973569
83, -8.03, -4.90, -5.80, -3.67, -0.688, -0.352, 0.608, 18:42:53.570, 1590856973570
84, -16.48, -0.81, -9.15, -4.77, -0.688, -0.352, 0.608, 18:42:53.570, 1590856973570
85, 6.23, 10.51, 10.85, 13.46, -0.688, -0.352, 0.608, 18:42:53.584, 1590856973584
86, 45.16, 45.00, 36.74, 41.28, -0.576, -0.208, 0.464, 18:42:53.584, 1590856973584
87, -14.87, -9.71, -14.71, -5.57, -0.576, -0.208, 0.464, 18:42:53.599, 1590856973599
88, -14.78, -9.17, -7.08, -7.66, -0.576, -0.208, 0.464, 18:42:53.599, 1590856973599
89, 17.11, 22.41, 16.32, 16.98, -0.576, -0.208, 0.464, 18:42:53.600, 1590856973600
90, 36.51, 39.09, 42.10, 37.18, -0.576, -0.208, 0.464, 18:42:53.600, 1590856973600
91, -19.12, -16.56, -14.54, -12.72, -0.576, -0.208, 0.464, 18:42:53.614, 1590856973614
92, -3.58, 3.08, -3.54, -0.41, -0.576, -0.208, 0.464, 18:42:53.614, 1590856973614
93, 12.10, 15.51, 13.10, 16.94, -0.576, -0.208, 0.464, 18:42:53.630, 1590856973630
94, 39.00, 37.72, 33.92, 36.44, -0.576, -0.208, 0.464, 18:42:53.630, 1590856973630
95, -5.06, 0.50, -3.66, -4.54, -0.576, -0.208, 0.464, 18:42:53.631, 1590856973631
96, -11.06, -5.95, -3.93, -4.79, -0.576, -0.208, 0.464, 18:42:53.631, 1590856973631
97, 6.61, 13.05, 8.14, 13.31, -0.576, -0.208, 0.464, 18:42:53.644, 1590856973644
98, 46.49, 44.97, 38.81, 40.75, -0.576, -0.208, 0.464, 18:42:53.644, 1590856973644
99, -12.67, -5.78, -10.37, -14.72, -0.576, -0.208, 0.464, 18:42:53.660, 1590856973660
100, -13.64, -4.13, -11.82, -8.83, -0.576, -0.208, 0.464, 18:42:53.660, 1590856973660
101, 20.50, 22.06, 20.92, 20.60, -0.576, -0.208, 0.464, 18:42:53.660, 1590856973660
102, 43.02, 40.17, 31.98, 43.34, -0.576, -0.208, 0.464, 18:42:53.660, 1590856973660
103, -16.41, -14.71, -17.04, -9.25, -0.576, -0.208, 0.464, 18:42:53.708, 1590856973708
104, -5.01, 0.63, -4.48, -1.74, -0.576, -0.208, 0.464, 18:42:53.708, 1590856973708
105, 15.06, 14.85, 13.92, 21.06, -0.576, -0.208, 0.464, 18:42:53.708, 1590856973708
106, 42.84, 37.85, 36.26, 38.88, -0.544, -0.192, 0.768, 18:42:53.708, 1590856973708
107, -18.50, -11.33, -14.20, -9.03, -0.544, -0.192, 0.768, 18:42:53.708, 1590856973708
108, -11.52, -0.44, -5.49, -3.82, -0.544, -0.192, 0.768, 18:42:53.708, 1590856973708
109, 7.64, 14.38, 8.90, 12.79, -0.544, -0.192, 0.768, 18:42:53.709, 1590856973709
110, 44.28, 41.22, 34.82, 38.99, -0.544, -0.192, 0.768, 18:42:53.709, 1590856973709
111, -16.98, -16.44, -7.37, -13.96, -0.544, -0.192, 0.768, 18:42:53.720, 1590856973720
112, -15.32, -9.32, -10.51, -12.05, -0.544, -0.192, 0.768, 18:42:53.720, 1590856973720
113, 15.46, 16.58, 11.07, 11.25, -0.544, -0.192, 0.768, 18:42:53.720, 1590856973720
114, 47.56, 41.61, 35.89, 42.99, -0.544, -0.192, 0.768, 18:42:53.720, 1590856973720
115, -21.85, -11.81, -20.13, -11.90, -0.544, -0.192, 0.768, 18:42:53.734, 1590856973734
116, -9.09, -0.60, -8.93, -5.51, -0.544, -0.192, 0.768, 18:42:53.734, 1590856973734
117, 7.44, 13.30, 8.84, 12.93, -0.544, -0.192, 0.768, 18:42:53.750, 1590856973750
118, 40.01, 35.47, 29.94, 34.09, -0.544, -0.192, 0.768, 18:42:53.750, 1590856973750
119, -11.10, -4.04, -8.96, -9.82, -0.544, -0.192, 0.768, 18:42:53.750, 1590856973750
120, -12.70, -2.96, -12.60, -10.48, -0.544, -0.192, 0.768, 18:42:53.750, 1590856973750
121, 10.50, 12.93, 5.16, 8.76, -0.544, -0.192, 0.768, 18:42:53.781, 1590856973781
122, 47.10, 46.01, 40.54, 43.72, -0.544, -0.192, 0.768, 18:42:53.781, 1590856973781
123, -18.30, -12.64, -12.32, -13.76, -0.544, -0.192, 0.768, 18:42:53.781, 1590856973781
124, -14.79, -9.48, -9.43, -8.18, -0.544, -0.192, 0.768, 18:42:53.781, 1590856973781
125, 18.60, 20.34, 13.26, 17.71, -0.544, -0.192, 0.768, 18:42:53.795, 1590856973795
126, 40.86, 39.39, 37.24, 35.08, -0.464, -0.256, 0.752, 18:42:53.795, 1590856973795
127, -20.33, -9.19, -15.39, -11.71, -0.464, -0.256, 0.752, 18:42:53.795, 1590856973795
128, -6.25, -0.02, -5.07, -6.12, -0.464, -0.256, 0.752, 18:42:53.795, 1590856973795
129, 13.21, 18.50, 9.28, 11.46, -0.464, -0.256, 0.752, 18:42:53.810, 1590856973810
130, 39.35, 41.05, 31.03, 35.15, -0.464, -0.256, 0.752, 18:42:53.810, 1590856973810
131, -13.46, -3.75, -7.83, -4.73, -0.464, -0.256, 0.752, 18:42:53.810, 1590856973810
132, -9.31, -1.23, -0.33, -8.30, -0.464, -0.256, 0.752, 18:42:53.810, 1590856973810
133, 6.33, 12.90, 7.72, 7.58, -0.464, -0.256, 0.752, 18:42:53.824, 1590856973824
134, 45.48, 47.37, 42.86, 39.19, -0.464, -0.256, 0.752, 18:42:53.824, 1590856973824
135, -15.47, -5.22, -4.72, -0.41, -0.464, -0.256, 0.752, 18:42:53.840, 1590856973840
136, -13.81, -6.81, -7.52, -5.56, -0.464, -0.256, 0.752, 18:42:53.840, 1590856973840
137, 17.04, 22.34, 15.03, 16.32, -0.464, -0.256, 0.752, 18:42:53.840, 1590856973840
138, 40.21, 39.95, 32.13, 36.47, -0.464, -0.256, 0.752, 18:42:53.840, 1590856973840
139, -20.85, -8.04, -8.12, -9.89, -0.464, -0.256, 0.752, 18:42:53.854, 1590856973854
140, -7.53, -1.13, -2.76, 0.93, -0.464, -0.256, 0.752, 18:42:53.854, 1590856973854
141, 10.04, 14.04, 10.91, 8.00, -0.464, -0.256, 0.752, 18:42:53.870, 1590856973870
142, 36.24, 33.85, 26.46, 33.55, -0.464, -0.256, 0.752, 18:42:53.870, 1590856973870
143, -10.50, -0.32, -7.29, -1.04, -0.464, -0.256, 0.752, 18:42:53.871, 1590856973871
144, -14.33, -5.57, -6.16, -2.72, -0.464, -0.256, 0.752, 18:42:53.871, 1590856973871
145, 5.87, 9.93, 7.46, 8.29, -0.464, -0.256, 0.752, 18:42:53.884, 1590856973884
146, 40.48, 42.39, 34.31, 41.85, -0.320, -0.480, 0.704, 18:42:53.884, 1590856973884
147, -11.34, -6.79, -8.82, -7.35, -0.320, -0.480, 0.704, 18:42:53.915, 1590856973915
148, -13.65, -4.41, -10.77, -7.99, -0.320, -0.480, 0.704, 18:42:53.915, 1590856973915
149, 19.33, 20.65, 14.70, 17.06, -0.320, -0.480, 0.704, 18:42:53.916, 1590856973916
150, 37.41, 42.72, 30.70, 36.40, -0.320, -0.480, 0.704, 18:42:53.916, 1590856973916
151, -22.98, -10.18, -13.20, -10.43, -0.320, -0.480, 0.704, 18:42:53.917, 1590856973917
152, -5.70, 1.61, 1.22, -1.01, -0.320, -0.480, 0.704, 18:42:53.917, 1590856973917
153, 8.08, 12.51, 5.69, 9.44, -0.320, -0.480, 0.704, 18:42:53.945, 1590856973945
154, 34.37, 33.23, 27.03, 38.56, -0.320, -0.480, 0.704, 18:42:53.945, 1590856973945
155, -13.97, -1.92, -4.39, -2.08, -0.320, -0.480, 0.704, 18:42:53.946, 1590856973946
156, -12.77, -1.70, -3.54, -4.40, -0.320, -0.480, 0.704, 18:42:53.946, 1590856973946
157, 7.95, 5.28, 8.29, 7.04, -0.320, -0.480, 0.704, 18:42:53.947, 1590856973947
158, 43.66, 39.53, 34.30, 39.24, -0.320, -0.480, 0.704, 18:42:53.947, 1590856973947
159, -17.09, -7.72, -9.14, -7.95, -0.320, -0.480, 0.704, 18:42:53.959, 1590856973959
160, -16.82, -11.89, -13.05, -12.05, -0.320, -0.480, 0.704, 18:42:53.959, 1590856973959
161, 12.18, 13.97, 12.82, 16.80, -0.320, -0.480, 0.704, 18:42:53.960, 1590856973960
162, 37.45, 38.96, 28.41, 38.09, -0.320, -0.480, 0.704, 18:42:53.960, 1590856973960
163, -18.03, -9.25, -13.28, -4.52, -0.320, -0.480, 0.704, 18:42:53.974, 1590856973974
164, -3.94, -1.91, -5.89, 0.12, -0.320, -0.480, 0.704, 18:42:53.974, 1590856973974
165, 10.77, 12.64, 9.72, 12.49, -0.320, -0.480, 0.704, 18:42:54.022, 1590856974022
166, 29.98, 31.78, 28.34, 34.21, -0.256, -0.624, 0.800, 18:42:54.022, 1590856974022
167, -7.94, -1.25, -5.19, 6.83, -0.256, -0.624, 0.800, 18:42:54.022, 1590856974022
168, -12.90, -7.56, -6.78, -1.14, -0.256, -0.624, 0.800, 18:42:54.022, 1590856974022
169, 3.66, 11.97, 4.92, 11.10, -0.256, -0.624, 0.800, 18:42:54.023, 1590856974023
170, 37.92, 46.70, 32.44, 36.28, -0.256, -0.624, 0.800, 18:42:54.023, 1590856974023
171, -12.32, -0.86, -6.37, -5.03, -0.256, -0.624, 0.800, 18:42:54.024, 1590856974024
172, -9.49, -3.58, -6.76, -5.06, -0.256, -0.624, 0.800, 18:42:54.024, 1590856974024
173, 10.34, 15.51, 11.11, 14.82, -0.256, -0.624, 0.800, 18:42:54.035, 1590856974035
174, 36.56, 37.24, 28.65, 32.76, -0.256, -0.624, 0.800, 18:42:54.035, 1590856974035
175, -17.83, -9.23, -11.32, -9.21, -0.256, -0.624, 0.800, 18:42:54.035, 1590856974035
176, -9.23, 2.40, -1.77, -0.89, -0.256, -0.624, 0.800, 18:42:54.035, 1590856974035
177, 16.09, 13.29, 8.77, 14.82, -0.256, -0.624, 0.800, 18:42:54.050, 1590856974050
178, 33.31, 29.60, 28.35, 34.26, -0.256, -0.624, 0.800, 18:42:54.050, 1590856974050
179, -8.07, 0.29, -2.21, -0.24, -0.256, -0.624, 0.800, 18:42:54.050, 1590856974050
180, -7.16, -3.54, -1.68, -0.48, -0.256, -0.624, 0.800, 18:42:54.050, 1590856974050
181, 5.92, 12.10, 5.50, 9.01, -0.256, -0.624, 0.800, 18:42:54.064, 1590856974064
182, 42.92, 40.17, 34.03, 33.74, -0.256, -0.624, 0.800, 18:42:54.064, 1590856974064
183, -8.00, -1.50, -8.28, -1.61, -0.256, -0.624, 0.800, 18:42:54.080, 1590856974080
184, -12.38, 0.92, -6.86, -1.02, -0.256, -0.624, 0.800, 18:42:54.080, 1590856974080
185, 17.64, 16.69, 12.05, 13.27, -0.256, -0.624, 0.800, 18:42:54.080, 1590856974080
186, 33.33, 33.64, 23.20, 32.38, -0.144, -0.688, 1.120, 18:42:54.080, 1590856974080
187, -16.14, -6.88, -8.54, -5.95, -0.144, -0.688, 1.120, 18:42:54.094, 1590856974094
188, -0.09, 1.07, -1.22, -1.46, -0.144, -0.688, 1.120, 18:42:54.094, 1590856974094
189, 10.42, 15.25, 9.28, 8.76, -0.144, -0.688, 1.120, 18:42:54.109, 1590856974109
190, 29.54, 31.90, 23.55, 27.84, -0.144, -0.688, 1.120, 18:42:54.109, 1590856974109
191, 1.13, 8.32, 3.21, 4.51, -0.144, -0.688, 1.120, 18:42:54.111, 1590856974111
192, -8.31, -5.15, -6.49, -0.11, -0.144, -0.688, 1.120, 18:42:54.111, 1590856974111
193, 6.13, 8.30, 2.53, 7.21, -0.144, -0.688, 1.120, 18:42:54.124, 1590856974124
194, 33.92, 39.79, 26.86, 36.20, -0.144, -0.688, 1.120, 18:42:54.124, 1590856974124
195, -7.01, 2.69, -12.84, 0.72, -0.144, -0.688, 1.120, 18:42:54.140, 1590856974140
196, -7.95, -5.33, -15.30, -5.20, -0.144, -0.688, 1.120, 18:42:54.140, 1590856974140
197, 11.86, 16.74, -2.55, 15.24, -0.144, -0.688, 1.120, 18:42:54.140, 1590856974140
198, 33.99, 35.39, 17.15, 28.58, -0.144, -0.688, 1.120, 18:42:54.140, 1590856974140
199, -11.40, -5.77, -5.94, -4.20, -0.144, -0.688, 1.120, 18:42:54.156, 1590856974156
200, -3.61, -0.03, -0.56, -0.79, -0.144, -0.688, 1.120, 18:42:54.156, 1590856974156
0, 8.87, 15.35, 12.41, 8.96, -0.144, -0.688, 1.120, 18:42:54.159, 1590856974159
1, 27.68, 33.41, 22.89, 22.70, -0.144, -0.688, 1.120, 18:42:54.169, 1590856974169
2, -1.14, 1.85, -0.20, 0.64, -0.144, -0.688, 1.120, 18:42:54.169, 1590856974169
3, -12.89, -7.87, -2.13, 0.93, -0.144, -0.688, 1.120, 18:42:54.185, 1590856974185
4, 5.02, 7.32, 8.57, 7.06, -0.144, -0.688, 1.120, 18:42:54.185, 1590856974185
5, 40.36, 36.80, 36.38, 31.23, -0.144, -0.688, 1.120, 18:42:54.185, 1590856974185
6, -7.38, -3.72, -2.28, 1.50, -0.096, -0.672, 0.816, 18:42:54.185, 1590856974185
7, -14.14, -9.37, -8.62, -10.30, -0.096, -0.672, 0.816, 18:42:54.199, 1590856974199
8, 9.23, 10.55, 11.44, 12.10, -0.096, -0.672, 0.816, 18:42:54.199, 1590856974199
9, 29.23, 32.57, 21.53, 30.54, -0.096, -0.672, 0.816, 18:42:54.214, 1590856974214
10, -11.96, -3.99, -12.54, -5.01, -0.096, -0.672, 0.816, 18:42:54.214, 1590856974214
11, -5.15, 1.16, -1.61, 3.70, -0.096, -0.672, 0.816, 18:42:54.215, 1590856974215
12, 7.09, 7.33, 3.79, 8.66, -0.096, -0.672, 0.816, 18:42:54.215, 1590856974215
13, 33.59, 31.80, 25.84, 29.03, -0.096, -0.672, 0.816, 18:42:54.229, 1590856974229
14, -5.25, -0.59, -5.43, 1.16, -0.096, -0.672, 0.816, 18:42:54.229, 1590856974229
15, -6.63, -10.85, -13.57, -1.87, -0.096, -0.672, 0.816, 18:42:54.245, 1590856974245
16, 1.26, 5.51, -27.44, 8.97, -0.096, -0.672, 0.816, 18:42:54.245, 1590856974245
17, 40.55, 37.40, -13.28, 35.41, -0.096, -0.672, 0.816, 18:42:54.245, 1590856974245
18, -10.38, -8.87, -34.53, -5.16, -0.096, -0.672, 0.816, 18:42:54.245, 1590856974245
19, -16.86, -22.84, -169.14, -7.60, -0.096, -0.672, 0.816, 18:42:54.259, 1590856974259
20, 39.10, 143.09, -130.09, 6.67, -0.096, -0.672, 0.816, 18:42:54.259, 1590856974259
21, 28.30, 91.11, 36.36, 35.65, -0.096, -0.672, 0.816, 18:42:54.274, 1590856974274
22, -18.65, -2.39, 4.34, -7.41, -0.096, -0.672, 0.816, 18:42:54.274, 1590856974274
23, -5.48, 0.11, 9.29, -3.81, -0.096, -0.672, 0.816, 18:42:54.275, 1590856974275
24, 4.40, 4.65, 14.80, 11.17, -0.096, -0.672, 0.816, 18:42:54.275, 1590856974275
25, 26.57, 31.69, 35.01, 33.93, -0.096, -0.672, 0.816, 18:42:54.289, 1590856974289
26, -11.75, 0.15, 6.06, 6.88, -0.160, -0.768, 0.912, 18:42:54.289, 1590856974289
27, -16.81, -7.32, 0.73, -2.24, -0.160, -0.768, 0.912, 18:42:54.304, 1590856974304
28, 0.12, 5.13, 12.89, 8.83, -0.160, -0.768, 0.912, 18:42:54.304, 1590856974304
29, 38.03, 38.53, 43.51, 41.92, -0.160, -0.768, 0.912, 18:42:54.320, 1590856974320
30, -14.99, -7.80, 2.76, -7.64, -0.160, -0.768, 0.912, 18:42:54.320, 1590856974320
31, -20.06, -23.25, -5.08, -8.78, -0.160, -0.768, 0.912, 18:42:54.321, 1590856974321
32, 9.85, -69.27, 20.10, 11.54, -0.160, -0.768, 0.912, 18:42:54.321, 1590856974321
33, 40.32, 76.48, 37.17, 38.42, -0.160, -0.768, 0.912, 18:42:54.335, 1590856974335
34, -12.10, -0.32, -4.53, -7.74, -0.160, -0.768, 0.912, 18:42:54.335, 1590856974335
35, -3.44, -103.93, -0.70, -3.96, -0.160, -0.768, 0.912, 18:42:54.335, 1590856974335
36, 6.41, 19.66, 11.35, 10.81, -0.160, -0.768, 0.912, 18:42:54.335, 1590856974335
37, 34.93, 35.60, 32.94, 36.00, -0.160, -0.768, 0.912, 18:42:54.349, 1590856974349
38, -5.55, 5.07, -1.79, -2.58, -0.160, -0.768, 0.912, 18:42:54.349, 1590856974349
39, -12.61, -6.52, -4.64, -2.99, -0.160, -0.768, 0.912, 18:42:54.380, 1590856974380
40, -1.24, 10.68, 10.00, 6.48, -0.160, -0.768, 0.912, 18:42:54.380, 1590856974380
41, 45.47, 43.26, 45.90, 48.27, -0.160, -0.768, 0.912, 18:42:54.381, 1590856974381
42, -14.58, 11.49, -0.75, -1.82, -0.160, -0.768, 0.912, 18:42:54.381, 1590856974381
43, -19.13, 13.19, -3.99, -3.69, -0.160, -0.768, 0.912, 18:42:54.382, 1590856974382
44, 16.70, 29.99, 21.15, 12.88, -0.160, -0.768, 0.912, 18:42:54.382, 1590856974382
45, 39.16, 45.14, 40.59, 44.17, -0.160, -0.768, 0.912, 18:42:54.395, 1590856974395
46, -15.70, -3.58, -6.60, -3.86, -0.288, -0.784, 0.752, 18:42:54.395, 1590856974395
47, -4.06, -0.36, -3.68, -2.23, -0.288, -0.784, 0.752, 18:42:54.395, 1590856974395
48, 6.45, 15.08, 5.85, 11.99, -0.288, -0.784, 0.752, 18:42:54.395, 1590856974395
49, 38.81, 40.21, 37.32, 36.00, -0.288, -0.784, 0.752, 18:42:54.409, 1590856974409
50, -12.95, 0.88, 2.54, -3.64, -0.288, -0.784, 0.752, 18:42:54.409, 1590856974409
51, -15.01, -2.58, -5.15, -9.28, -0.288, -0.784, 0.752, 18:42:54.425, 1590856974425
52, 4.04, 7.46, 10.90, 6.95, -0.288, -0.784, 0.752, 18:42:54.425, 1590856974425
53, 46.18, 40.89, 43.23, 45.44, -0.288, -0.784, 0.752, 18:42:54.426, 1590856974426
54, -15.94, -10.62, -5.18, -6.38, -0.288, -0.784, 0.752, 18:42:54.426, 1590856974426
55, -16.46, -13.24, -6.86, -6.63, -0.288, -0.784, 0.752, 18:42:54.455, 1590856974455
56, 11.89, 16.24, 15.14, 10.51, -0.288, -0.784, 0.752, 18:42:54.455, 1590856974455
57, 39.70, 41.81, 41.61, 40.08, -0.288, -0.784, 0.752, 18:42:54.456, 1590856974456
58, -14.66, -5.05, -5.16, -9.83, -0.288, -0.784, 0.752, 18:42:54.456, 1590856974456
59, -9.54, -6.37, -3.93, -5.19, -0.288, -0.784, 0.752, 18:42:54.457, 1590856974457
60, 13.75, 12.31, 12.99, 13.30, -0.288, -0.784, 0.752, 18:42:54.457, 1590856974457
61, 33.46, 34.76, 37.51, 40.36, -0.288, -0.784, 0.752, 18:42:54.469, 1590856974469
62, -6.43, 2.02, -1.63, 0.03, -0.288, -0.784, 0.752, 18:42:54.469, 1590856974469
63, -10.62, -5.45, -4.87, -8.70, -0.288, -0.784, 0.752, 18:42:54.532, 1590856974532
64, 4.02, 7.29, 10.19, 10.49, -0.288, -0.784, 0.752, 18:42:54.532, 1590856974532
65, 44.58, 46.17, 43.80, 47.59, -0.288, -0.784, 0.752, 18:42:54.532, 1590856974532
66, -12.10, -11.39, -9.27, -11.52, -0.208, -0.912, 0.560, 18:42:54.532, 1590856974532
67, -15.88, -9.78, -8.99, -12.60, -0.208, -0.912, 0.560, 18:42:54.533, 1590856974533
68, 12.62, 14.42, 12.84, 13.83, -0.208, -0.912, 0.560, 18:42:54.533, 1590856974533
69, 40.47, 38.57, 36.43, 37.95, -0.208, -0.912, 0.560, 18:42:54.534, 1590856974534
70, -15.36, -3.56, -4.57, -13.93, -0.208, -0.912, 0.560, 18:42:54.534, 1590856974534
71, -7.44, -0.77, -2.34, -7.47, -0.208, -0.912, 0.560, 18:42:54.562, 1590856974562
72, 5.83, 11.66, 11.32, 14.42, -0.208, -0.912, 0.560, 18:42:54.562, 1590856974562
73, 39.05, 41.01, 40.14, 38.26, -0.208, -0.912, 0.560, 18:42:54.563, 1590856974563
74, -9.79, -1.73, 0.02, -4.06, -0.208, -0.912, 0.560, 18:42:54.563, 1590856974563
75, -15.10, -5.87, -3.66, -10.32, -0.208, -0.912, 0.560, 18:42:54.564, 1590856974564
76, 7.95, 9.07, 11.66, 9.88, -0.208, -0.912, 0.560, 18:42:54.564, 1590856974564
77, 44.92, 38.57, 42.44, 45.35, -0.208, -0.912, 0.560, 18:42:54.564, 1590856974564
78, -7.28, -5.91, -3.76, -2.07, -0.208, -0.912, 0.560, 18:42:54.564, 1590856974564
79, -17.75, -9.91, -9.40, -13.93, -0.208, -0.912, 0.560, 18:42:54.576, 1590856974576
80, 13.64, 17.27, 18.95, 14.50, -0.208, -0.912, 0.560, 18:42:54.576, 1590856974576
81, 42.54, 38.38, 40.60, 43.87, -0.208, -0.912, 0.560, 18:42:54.577, 1590856974577
82, -14.45, -10.38, -9.11, -6.39, -0.208, -0.912, 0.560, 18:42:54.577, 1590856974577
83, 1.49, 1.80, 2.68, -3.18, -0.208, -0.912, 0.560, 18:42:54.607, 1590856974607
84, 2.87, 6.36, 0.83, 9.80, -0.208, -0.912, 0.560, 18:42:54.607, 1590856974607
85, 36.85, 34.97, 35.90, 37.27, -0.208, -0.912, 0.560, 18:42:54.607, 1590856974607
86, -7.13, -0.30, -3.18, -1.29, -0.144, -0.896, 0.352, 18:42:54.607, 1590856974607
87, -14.20, -9.25, -5.41, -12.36, -0.144, -0.896, 0.352, 18:42:54.608, 1590856974608
88, 5.19, 7.32, 9.93, 7.64, -0.144, -0.896, 0.352, 18:42:54.608, 1590856974608
89, 43.76, 39.28, 42.94, 39.26, -0.144, -0.896, 0.352, 18:42:54.609, 1590856974609
90, -11.41, -3.16, -6.98, -10.33, -0.144, -0.896, 0.352, 18:42:54.609, 1590856974609
91, -14.83, -11.63, -12.46, -13.46, -0.144, -0.896, 0.352, 18:42:54.619, 1590856974619
92, 12.82, 15.16, 18.26, 19.61, -0.144, -0.896, 0.352, 18:42:54.619, 1590856974619
93, 38.00, 39.59, 33.36, 42.53, -0.144, -0.896, 0.352, 18:42:54.635, 1590856974635
94, -14.85, -8.67, -9.49, -5.09, -0.144, -0.896, 0.352, 18:42:54.635, 1590856974635
95, -8.24, 0.66, -2.77, -1.76, -0.144, -0.896, 0.352, 18:42:54.635, 1590856974635
96, 2.11, 10.31, 9.10, 11.09, -0.144, -0.896, 0.352, 18:42:54.635, 1590856974635
97, 39.53, 33.19, 37.53, 38.04, -0.144, -0.896, 0.352, 18:42:54.649, 1590856974649
98, -6.29, -3.72, -7.39, -6.50, -0.144, -0.896, 0.352, 18:42:54.649, 1590856974649
99, -15.91, -3.65, -7.06, -8.16, -0.144, -0.896, 0.352, 18:42:54.665, 1590856974665
100, 3.01, 8.72, 4.70, 8.62, -0.144, -0.896, 0.352, 18:42:54.665, 1590856974665
101, 46.75, 46.70, 44.63, 42.95, -0.144, -0.896, 0.352, 18:42:54.665, 1590856974665
102, -15.71, -4.99, -3.33, -8.74, -0.144, -0.896, 0.352, 18:42:54.665, 1590856974665
103, -18.87, -10.56, -14.06, -16.98, -0.144, -0.896, 0.352, 18:42:54.695, 1590856974695
104, 8.73, 15.54, 15.40, 9.73, -0.144, -0.896, 0.352, 18:42:54.695, 1590856974695
105, 38.24, 35.75, 37.42, 42.15, -0.144, -0.896, 0.352, 18:42:54.696, 1590856974696
106, -13.35, -8.93, -8.33, -10.41, -0.112, -1.008, 0.272, 18:42:54.696, 1590856974696
107, -10.80, 0.34, -6.32, -7.52, -0.112, -1.008, 0.272, 18:42:54.710, 1590856974710
108, 7.99, 8.69, 14.45, 6.25, -0.112, -1.008, 0.272, 18:42:54.710, 1590856974710
109, 36.32, 37.78, 37.99, 40.22, -0.112, -1.008, 0.272, 18:42:54.711, 1590856974711
110, -9.59, 0.78, -1.17, -5.37, -0.112, -1.008, 0.272, 18:42:54.711, 1590856974711
111, -11.87, -3.57, -11.25, -7.51, -0.112, -1.008, 0.272, 18:42:54.725, 1590856974725
112, 2.78, 4.48, 6.15, 7.37, -0.112, -1.008, 0.272, 18:42:54.725, 1590856974725
113, 41.45, 41.87, 37.66, 44.04, -0.112, -1.008, 0.272, 18:42:54.726, 1590856974726
114, -13.94, 0.87, -10.26, -5.31, -0.112, -1.008, 0.272, 18:42:54.726, 1590856974726
115, -12.99, -10.01, -13.99, -15.83, -0.112, -1.008, 0.272, 18:42:54.739, 1590856974739
116, 10.03, 14.32, 9.14, 11.03, -0.112, -1.008, 0.272, 18:42:54.739, 1590856974739
117, 38.90, 38.43, 34.94, 42.40, -0.112, -1.008, 0.272, 18:42:54.769, 1590856974769
118, -13.23, -8.17, -12.15, -6.93, -0.112, -1.008, 0.272, 18:42:54.769, 1590856974769
119, -16.17, -3.50, -4.58, -2.43, -0.112, -1.008, 0.272, 18:42:54.786, 1590856974786
120, 3.88, 10.02, 6.15, 6.81, -0.112, -1.008, 0.272, 18:42:54.786, 1590856974786
121, 37.93, 32.84, 32.48, 38.20, -0.112, -1.008, 0.272, 18:42:54.787, 1590856974787
122, -17.48, 1.53, 0.04, -4.65, -0.112, -1.008, 0.272, 18:42:54.787, 1590856974787
123, -29.82, -3.28, -6.35, -8.53, -0.112, -1.008, 0.272, 18:42:54.788, 1590856974788
124, 6.25, 7.26, 6.68, 5.58, -0.112, -1.008, 0.272, 18:42:54.788, 1590856974788
125, 43.07, 39.56, 43.77, 46.53, -0.112, -1.008, 0.272, 18:42:54.788, 1590856974788
126, -12.31, -2.88, -4.90, -8.20, -0.080, -1.008, 0.256, 18:42:54.788, 1590856974788
127, -14.60, -7.73, -14.71, -11.71, -0.080, -1.008, 0.256, 18:42:54.799, 1590856974799
128, 12.97, 14.40, 15.67, 17.18, -0.080, -1.008, 0.256, 18:42:54.799, 1590856974799
129, 39.18, 38.86, 36.68, 38.71, -0.080, -1.008, 0.256, 18:42:54.830, 1590856974830
130, -17.73, -7.32, -7.86, -8.35, -0.080, -1.008, 0.256, 18:42:54.830, 1590856974830
131, -8.80, -1.74, -1.75, -2.20, -0.080, -1.008, 0.256, 18:42:54.831, 1590856974831
132, 5.14, 11.87, 8.92, 8.57, -0.080, -1.008, 0.256, 18:42:54.831, 1590856974831
133, 37.44, 38.48, 35.79, 44.25, -0.080, -1.008, 0.256, 18:42:54.832, 1590856974832
134, -5.42, 4.13, -1.24, -4.43, -0.080, -1.008, 0.256, 18:42:54.832, 1590856974832
135, -18.50, -5.59, -7.53, -12.79, -0.080, -1.008, 0.256, 18:42:54.845, 1590856974845
136, 1.46, 12.93, 6.66, 5.16, -0.080, -1.008, 0.256, 18:42:54.845, 1590856974845
137, 41.75, 48.21, 39.36, 46.98, -0.080, -1.008, 0.256, 18:42:54.845, 1590856974845
138, -7.53, -3.69, -2.82, -4.45, -0.080, -1.008, 0.256, 18:42:54.845, 1590856974845
139, -20.45, -7.98, -12.63, -12.11, -0.080, -1.008, 0.256, 18:42:54.859, 1590856974859
140, 9.91, 12.50, 9.57, 12.98, -0.080, -1.008, 0.256, 18:42:54.859, 1590856974859
141, 44.15, 39.32, 39.67, 40.94, -0.080, -1.008, 0.256, 18:42:54.875, 1590856974875
142, -16.09, -7.57, -8.97, -8.23, -0.080, -1.008, 0.256, 18:42:54.875, 1590856974875
143, -8.46, 0.27, -6.42, -2.28, -0.080, -1.008, 0.256, 18:42:54.875, 1590856974875
144, 7.90, 6.77, 4.01, 2.75, -0.080, -1.008, 0.256, 18:42:54.875, 1590856974875
145, 41.51, 38.76, 39.09, 40.28, -0.080, -1.008, 0.256, 18:42:54.889, 1590856974889
146, -11.14, -4.18, 0.39, -3.69, -0.192, -1.008, 0.272, 18:42:54.889, 1590856974889
147, -16.84, -6.96, -10.05, -15.05, -0.192, -1.008, 0.272, 18:42:54.905, 1590856974905
148, 7.95, 4.59, 7.73, 6.78, -0.192, -1.008, 0.272, 18:42:54.905, 1590856974905
149, 44.75, 42.02, 42.64, 52.18, -0.192, -1.008, 0.272, 18:42:54.906, 1590856974906
150, -22.34, -3.93, -9.29, -8.91, -0.192, -1.008, 0.272, 18:42:54.906, 1590856974906
151, -21.42, -9.05, -13.79, -14.52, -0.192, -1.008, 0.272, 18:42:54.919, 1590856974919
152, 14.13, 10.50, 5.56, 13.03, -0.192, -1.008, 0.272, 18:42:54.919, 1590856974919
153, 43.76, 38.67, 40.64, 44.16, -0.192, -1.008, 0.272, 18:42:54.934, 1590856974934
154, -13.76, -4.09, -8.72, -11.67, -0.192, -1.008, 0.272, 18:42:54.934, 1590856974934
155, -5.97, -4.81, -1.36, -9.31, -0.192, -1.008, 0.272, 18:42:54.935, 1590856974935
156, 5.81, 7.20, 6.63, 10.39, -0.192, -1.008, 0.272, 18:42:54.935, 1590856974935
157, 40.61, 37.86, 35.50, 40.11, -0.192, -1.008, 0.272, 18:42:54.949, 1590856974949
158, -9.03, 0.99, 1.04, -1.45, -0.192, -1.008, 0.272, 18:42:54.949, 1590856974949
159, -14.34, -4.88, -11.40, -9.60, -0.192, -1.008, 0.272, 18:42:54.965, 1590856974965
160, 0.25, 6.38, 5.74, 7.44, -0.192, -1.008, 0.272, 18:42:54.965, 1590856974965
161, 47.70, 41.74, 39.83, 50.13, -0.192, -1.008, 0.272, 18:42:54.966, 1590856974966
162, -10.59, -6.19, -4.35, -7.15, -0.192, -1.008, 0.272, 18:42:54.966, 1590856974966
163, -15.44, -10.12, -15.50, -10.86, -0.192, -1.008, 0.272, 18:42:54.979, 1590856974979
164, 10.74, 17.09, 8.74, 16.60, -0.192, -1.008, 0.272, 18:42:54.979, 1590856974979
165, 46.46, 44.43, 40.26, 47.35, -0.192, -1.008, 0.272, 18:42:54.995, 1590856974995
166, -16.20, -3.77, -8.71, -6.59, -0.192, -1.120, 0.208, 18:42:54.995, 1590856974995
167, -8.93, -3.20, -6.13, -7.29, -0.192, -1.120, 0.208, 18:42:54.995, 1590856974995
168, 7.09, 12.88, 5.72, 8.78, -0.192, -1.120, 0.208, 18:42:54.995, 1590856974995
169, 40.94, 35.85, 37.23, 44.21, -0.192, -1.120, 0.208, 18:42:55.009, 1590856975009
170, -7.75, 0.37, -3.89, -1.76, -0.192, -1.120, 0.208, 18:42:55.009, 1590856975009
171, -17.50, -7.80, -12.19, -6.37, -0.192, -1.120, 0.208, 18:42:55.025, 1590856975025
172, 0.45, 7.52, 5.41, 9.70, -0.192, -1.120, 0.208, 18:42:55.025, 1590856975025
173, 48.09, 43.45, 39.63, 48.85, -0.192, -1.120, 0.208, 18:42:55.026, 1590856975026
174, -11.24, -7.94, -1.70, -2.09, -0.192, -1.120, 0.208, 18:42:55.026, 1590856975026
175, -17.60, -7.62, -17.18, -12.73, -0.192, -1.120, 0.208, 18:42:55.039, 1590856975039
176, 6.88, 17.00, 9.27, 15.71, -0.192, -1.120, 0.208, 18:42:55.039, 1590856975039
177, 42.28, 40.54, 35.56, 46.35, -0.192, -1.120, 0.208, 18:42:55.054, 1590856975054
178, -18.84, -7.11, -9.04, -13.16, -0.192, -1.120, 0.208, 18:42:55.054, 1590856975054
179, -11.12, -0.21, -6.59, -4.82, -0.192, -1.120, 0.208, 18:42:55.055, 1590856975055
180, 4.62, 9.97, 5.25, 10.79, -0.192, -1.120, 0.208, 18:42:55.055, 1590856975055
181, 41.25, 39.58, 37.56, 40.67, -0.192, -1.120, 0.208, 18:42:55.069, 1590856975069
182, -4.60, 1.28, -2.81, -4.09, -0.192, -1.120, 0.208, 18:42:55.069, 1590856975069
183, -15.76, -6.11, -12.01, -11.88, -0.192, -1.120, 0.208, 18:42:55.085, 1590856975085
184, 2.14, 7.71, 6.14, 7.64, -0.192, -1.120, 0.208, 18:42:55.085, 1590856975085
185, 47.92, 45.25, 44.64, 51.22, -0.192, -1.120, 0.208, 18:42:55.085, 1590856975085
186, -10.65, -5.82, -12.37, -5.82, 0.288, -1.056, 0.224, 18:42:55.085, 1590856975085
187, -17.61, -14.19, -14.94, -10.81, 0.288, -1.056, 0.224, 18:42:55.099, 1590856975099
188, 10.19, 16.28, 11.69, 10.82, 0.288, -1.056, 0.224, 18:42:55.099, 1590856975099
189, 42.55, 45.30, 40.03, 42.92, 0.288, -1.056, 0.224, 18:42:55.147, 1590856975147
190, -10.01, -7.47, -14.97, -8.47, 0.288, -1.056, 0.224, 18:42:55.147, 1590856975147
191, -7.57, -5.50, -9.40, -7.02, 0.288, -1.056, 0.224, 18:42:55.147, 1590856975147
192, 3.77, 12.40, 4.40, 10.65, 0.288, -1.056, 0.224, 18:42:55.147, 1590856975147
193, 41.65, 38.92, 35.06, 40.12, 0.288, -1.056, 0.224, 18:42:55.148, 1590856975148
194, -5.10, 2.28, -1.98, -3.68, 0.288, -1.056, 0.224, 18:42:55.148, 1590856975148
195, -14.95, -9.69, -13.72, -11.36, 0.288, -1.056, 0.224, 18:42:55.149, 1590856975149
196, 4.25, 6.40, 6.06, 11.30, 0.288, -1.056, 0.224, 18:42:55.149, 1590856975149
197, 47.00, 43.30, 40.56, 46.25, 0.288, -1.056, 0.224, 18:42:55.160, 1590856975160
198, -9.35, -5.40, -5.68, -8.19, 0.288, -1.056, 0.224, 18:42:55.160, 1590856975160
199, -17.43, -10.88, -20.07, -12.98, 0.288, -1.056, 0.224, 18:42:55.176, 1590856975176
200, 9.12, 10.48, 6.75, 12.45, 0.288, -1.056, 0.224, 18:42:55.176, 1590856975176
0, 46.59, 39.13, 37.42, 45.23, 0.288, -1.056, 0.224, 18:42:55.176, 1590856975176
1, -11.91, -6.07, -12.28, -6.71, 0.288, -1.056, 0.224, 18:42:55.177, 1590856975177
2, -8.30, 0.77, -7.18, -6.56, 0.288, -1.056, 0.224, 18:42:55.177, 1590856975177
3, 6.36, 9.27, 6.51, 13.30, 0.288, -1.056, 0.224, 18:42:55.190, 1590856975190
4, 36.48, 39.45, 38.03, 44.63, 0.288, -1.056, 0.224, 18:42:55.190, 1590856975190
5, -5.23, -0.28, -2.85, -3.18, 0.288, -1.056, 0.224, 18:42:55.190, 1590856975190
6, -12.80, -5.55, -13.20, -8.70, -0.016, -1.024, 0.256, 18:42:55.190, 1590856975190
7, 2.53, 7.81, 8.15, 4.27, -0.016, -1.024, 0.256, 18:42:55.204, 1590856975204
8, 47.87, 46.39, 40.27, 46.34, -0.016, -1.024, 0.256, 18:42:55.204, 1590856975204
9, -6.11, 0.42, -6.23, -5.38, -0.016, -1.024, 0.256, 18:42:55.220, 1590856975220
10, -16.55, -8.23, -13.26, -14.31, -0.016, -1.024, 0.256, 18:42:55.220, 1590856975220
11, 12.95, 12.92, 15.01, 15.14, -0.016, -1.024, 0.256, 18:42:55.220, 1590856975220
12, 42.29, 42.46, 39.03, 42.70, -0.016, -1.024, 0.256, 18:42:55.220, 1590856975220
13, -12.81, -7.98, -8.93, -8.20, -0.016, -1.024, 0.256, 18:42:55.234, 1590856975234
14, -8.13, -2.64, -5.25, -6.90, -0.016, -1.024, 0.256, 18:42:55.234, 1590856975234
15, 8.45, 16.06, 10.90, 11.35, -0.016, -1.024, 0.256, 18:42:55.250, 1590856975250
16, 36.90, 34.21, 37.14, 44.56, -0.016, -1.024, 0.256, 18:42:55.250, 1590856975250
17, -5.18, -0.60, 2.98, 1.05, -0.016, -1.024, 0.256, 18:42:55.251, 1590856975251
18, -19.93, -6.57, -12.97, -6.66, -0.016, -1.024, 0.256, 18:42:55.251, 1590856975251
19, 2.92, 7.01, -0.93, 7.67, -0.016, -1.024, 0.256, 18:42:55.264, 1590856975264
20, 43.24, 47.36, 43.89, 43.47, -0.016, -1.024, 0.256, 18:42:55.264, 1590856975264
21, -11.22, -1.35, -10.20, -3.99, -0.016, -1.024, 0.256, 18:42:55.280, 1590856975280
22, -14.58, -10.01, -16.84, -12.58, -0.016, -1.024, 0.256, 18:42:55.280, 1590856975280
23, 10.98, 18.12, 11.83, 12.41, -0.016, -1.024, 0.256, 18:42:55.282, 1590856975282
24, 44.27, 39.03, 34.89, 43.10, -0.016, -1.024, 0.256, 18:42:55.282, 1590856975282
25, -13.04, -9.05, -7.92, -7.97, -0.016, -1.024, 0.256, 18:42:55.294, 1590856975294
26, -13.21, -0.78, -11.31, -7.38, -0.016, -1.040, 0.240, 18:42:55.294, 1590856975294
27, 6.40, 13.78, 10.06, 10.29, -0.016, -1.040, 0.240, 18:42:55.309, 1590856975309
28, 38.83, 39.76, 34.84, 40.86, -0.016, -1.040, 0.240, 18:42:55.309, 1590856975309
29, -2.28, 4.73, 0.29, -1.00, -0.016, -1.040, 0.240, 18:42:55.310, 1590856975310
30, -14.76, -4.15, -10.51, -7.26, -0.016, -1.040, 0.240, 18:42:55.310, 1590856975310
31, 1.04, 7.17, 2.81, 8.41, -0.016, -1.040, 0.240, 18:42:55.324, 1590856975324
32, 44.53, 42.97, 40.82, 53.75, -0.016, -1.040, 0.240, 18:42:55.324, 1590856975324
33, -8.41, -2.71, -7.63, -1.61, -0.016, -1.040, 0.240, 18:42:55.340, 1590856975340
34, -19.37, -10.08, -15.79, -14.45, -0.016, -1.040, 0.240, 18:42:55.340, 1590856975340
35, 10.75, 20.97, 10.91, 12.87, -0.016, -1.040, 0.240, 18:42:55.340, 1590856975340
36, 37.87, 44.15, 39.30, 44.28, -0.016, -1.040, 0.240, 18:42:55.340, 1590856975340
37, -12.85, -7.43, -10.58, -7.58, -0.016, -1.040, 0.240, 18:42:55.354, 1590856975354
38, -12.95, -3.58, -10.88, -9.03, -0.016, -1.040, 0.240, 18:42:55.354, 1590856975354
39, 8.78, 7.51, 6.85, 12.22, -0.016, -1.040, 0.240, 18:42:55.370, 1590856975370
40, 34.62, 35.90, 33.05, 39.80, -0.016, -1.040, 0.240, 18:42:55.370, 1590856975370
41, -4.53, 3.16, 1.67, -0.57, -0.016, -1.040, 0.240, 18:42:55.384, 1590856975384
42, -17.15, -7.77, -13.77, -8.38, -0.016, -1.040, 0.240, 18:42:55.384, 1590856975384
43, 0.87, 7.36, -2.46, 2.13, -0.016, -1.040, 0.240, 18:42:55.385, 1590856975385
44, 46.77, 47.38, 43.88, 46.50, -0.016, -1.040, 0.240, 18:42:55.385, 1590856975385
45, -6.01, -1.32, -4.55, -4.04, -0.016, -1.040, 0.240, 18:42:55.400, 1590856975400
46, -16.23, -9.68, -15.73, -15.10, -0.064, -1.056, 0.144, 18:42:55.400, 1590856975400
47, 12.20, 11.39, 9.13, 12.74, -0.064, -1.056, 0.144, 18:42:55.400, 1590856975400
48, 44.11, 38.01, 38.75, 47.67, -0.064, -1.056, 0.144, 18:42:55.400, 1590856975400
49, -11.19, -2.75, -4.07, -12.39, -0.064, -1.056, 0.144, 18:42:55.447, 1590856975447
50, -12.60, -2.65, -7.95, -11.98, -0.064, -1.056, 0.144, 18:42:55.447, 1590856975447
51, 6.28, 9.74, 10.76, 7.70, -0.064, -1.056, 0.144, 18:42:55.447, 1590856975447
52, 37.37, 37.77, 37.97, 41.61, -0.064, -1.056, 0.144, 18:42:55.447, 1590856975447
53, -5.21, 3.39, 3.89, -2.58, -0.064, -1.056, 0.144, 18:42:55.448, 1590856975448
54, -16.24, -6.00, -14.03, -11.96, -0.064, -1.056, 0.144, 18:42:55.448, 1590856975448
55, 4.79, 4.20, 1.83, 10.29, -0.064, -1.056, 0.144, 18:42:55.449, 1590856975449
56, 47.81, 47.30, 42.79, 45.98, -0.064, -1.056, 0.144, 18:42:55.449, 1590856975449
57, -9.53, -2.72, -6.90, -5.76, -0.064, -1.056, 0.144, 18:42:55.459, 1590856975459
58, -17.60, -11.53, -11.30, -15.46, -0.064, -1.056, 0.144, 18:42:55.459, 1590856975459
59, 6.49, 12.46, 6.63, 6.63, -0.064, -1.056, 0.144, 18:42:55.460, 1590856975460
60, 42.38, 43.78, 36.69, 45.65, -0.064, -1.056, 0.144, 18:42:55.460, 1590856975460
61, -10.81, -8.54, -11.09, -7.04, -0.064, -1.056, 0.144, 18:42:55.491, 1590856975491
62, -11.98, -4.89, -4.61, -5.49, -0.064, -1.056, 0.144, 18:42:55.491, 1590856975491
63, 6.61, 8.02, 7.24, 9.28, -0.064, -1.056, 0.144, 18:42:55.492, 1590856975492
64, 39.01, 35.53, 32.80, 41.93, -0.064, -1.056, 0.144, 18:42:55.492, 1590856975492
65, -4.38, 8.49, -3.71, -2.46, -0.064, -1.056, 0.144, 18:42:55.492, 1590856975492
66, -18.84, -7.98, -13.42, -10.62, 0.016, -1.040, 0.208, 18:42:55.492, 1590856975492
67, 1.78, 7.78, 1.28, 11.88, 0.016, -1.040, 0.208, 18:42:55.504, 1590856975504
68, 48.24, 40.67, 38.49, 48.68, 0.016, -1.040, 0.208, 18:42:55.504, 1590856975504
69, -6.25, -0.42, -3.68, -2.82, 0.016, -1.040, 0.208, 18:42:55.520, 1590856975520
70, -19.59, -11.65, -14.16, -11.04, 0.016, -1.040, 0.208, 18:42:55.520, 1590856975520
71, 9.41, 14.18, 7.89, 12.38, 0.016, -1.040, 0.208, 18:42:55.520, 1590856975520
72, 41.15, 42.05, 41.58, 41.85, 0.016, -1.040, 0.208, 18:42:55.520, 1590856975520
73, -14.98, -5.98, -5.47, -5.32, 0.016, -1.040, 0.208, 18:42:55.534, 1590856975534
74, -12.08, -5.60, -13.03, -8.24, 0.016, -1.040, 0.208, 18:42:55.534, 1590856975534
75, 3.64, 6.57, 8.70, 11.48, 0.016, -1.040, 0.208, 18:42:55.549, 1590856975549
76, 38.49, 37.38, 34.16, 40.79, 0.016, -1.040, 0.208, 18:42:55.549, 1590856975549
77, -0.14, 0.66, -2.83, 1.49, 0.016, -1.040, 0.208, 18:42:55.550, 1590856975550
78, -17.34, -6.84, -13.43, -11.79, 0.016, -1.040, 0.208, 18:42:55.550, 1590856975550
79, 2.83, 2.17, -4.44, 7.66, 0.016, -1.040, 0.208, 18:42:55.564, 1590856975564
80, 44.50, 43.95, 36.90, 49.78, 0.016, -1.040, 0.208, 18:42:55.564, 1590856975564
81, -9.90, -0.19, -4.35, -2.97, 0.016, -1.040, 0.208, 18:42:55.579, 1590856975579
82, -17.51, -6.85, -13.61, -16.56, 0.016, -1.040, 0.208, 18:42:55.579, 1590856975579
83, 14.91, 17.20, 9.02, 15.86, 0.016, -1.040, 0.208, 18:42:55.580, 1590856975580
84, 41.59, 39.50, 35.96, 41.19, 0.016, -1.040, 0.208, 18:42:55.580, 1590856975580
85, -15.43, 0.57, -5.80, -0.21, 0.016, -1.040, 0.208, 18:42:55.594, 1590856975594
86, -12.30, -1.85, -8.30, -6.86, -0.016, -1.024, 0.256, 18:42:55.594, 1590856975594
87, 3.66, 8.73, 6.83, 7.36, -0.016, -1.024, 0.256, 18:42:55.610, 1590856975610
88, 37.43, 40.52, 34.03, 42.15, -0.016, -1.024, 0.256, 18:42:55.610, 1590856975610
89, 0.29, 9.68, -0.60, -0.05, -0.016, -1.024, 0.256, 18:42:55.610, 1590856975610
90, -18.53, -8.93, -14.72, -11.94, -0.016, -1.024, 0.256, 18:42:55.610, 1590856975610
91, 0.82, 4.95, 5.79, 7.17, -0.016, -1.024, 0.256, 18:42:55.624, 1590856975624
92, 46.04, 41.64, 40.33, 42.72, -0.016, -1.024, 0.256, 18:42:55.624, 1590856975624
93, -10.03, 0.50, -3.92, -2.50, -0.016, -1.024, 0.256, 18:42:55.639, 1590856975639
94, -17.51, -7.95, -13.86, -17.08, -0.016, -1.024, 0.256, 18:42:55.639, 1590856975639
95, 9.56, 13.62, 11.41, 10.14, -0.016, -1.024, 0.256, 18:42:55.671, 1590856975671
96, 42.43, 40.79, 35.37, 42.60, -0.016, -1.024, 0.256, 18:42:55.671, 1590856975671
97, -10.55, -5.00, -4.65, -5.29, -0.016, -1.024, 0.256, 18:42:55.672, 1590856975672
98, -11.32, -4.67, -6.57, -8.21, -0.016, -1.024, 0.256, 18:42:55.672, 1590856975672
99, 4.04, 8.70, 4.04, 7.63, -0.016, -1.024, 0.256, 18:42:55.672, 1590856975672
100, 38.60, 35.38, 37.01, 42.24, -0.016, -1.024, 0.256, 18:42:55.672, 1590856975672
101, 2.27, 6.50, 0.06, 1.97, -0.016, -1.024, 0.256, 18:42:55.673, 1590856975673
102, -15.11, -6.65, -13.47, -14.82, -0.016, -1.024, 0.256, 18:42:55.673, 1590856975673
103, -1.82, 9.26, 2.15, 5.37, -0.016, -1.024, 0.256, 18:42:55.684, 1590856975684
104, 48.89, 44.68, 41.90, 49.81, -0.016, -1.024, 0.256, 18:42:55.684, 1590856975684
105, -10.51, -0.09, -3.83, -5.19, -0.016, -1.024, 0.256, 18:42:55.700, 1590856975700
106, -18.34, -10.70, -14.12, -17.27, 0.000, -0.992, 0.288, 18:42:55.700, 1590856975700
107, 10.10, 16.37, 7.70, 15.73, 0.000, -0.992, 0.288, 18:42:55.700, 1590856975700
108, 37.99, 42.64, 35.37, 40.79, 0.000, -0.992, 0.288, 18:42:55.700, 1590856975700
109, -11.34, -4.74, -6.47, -4.14, 0.000, -0.992, 0.288, 18:42:55.714, 1590856975714
110, -8.81, -2.04, -8.90, -7.44, 0.000, -0.992, 0.288, 18:42:55.714, 1590856975714
111, 3.72, 8.95, 4.27, 8.46, 0.000, -0.992, 0.288, 18:42:55.730, 1590856975730
112, 37.56, 36.54, 29.66, 40.92, 0.000, -0.992, 0.288, 18:42:55.730, 1590856975730
113, -1.34, 1.49, 2.42, 3.75, 0.000, -0.992, 0.288, 18:42:55.744, 1590856975744
114, -14.58, -10.23, -16.42, -9.69, 0.000, -0.992, 0.288, 18:42:55.744, 1590856975744
115, -2.80, 4.50, 4.49, 2.60, 0.000, -0.992, 0.288, 18:42:55.745, 1590856975745
116, 39.65, 47.34, 45.66, 44.39, 0.000, -0.992, 0.288, 18:42:55.745, 1590856975745
117, -10.23, -2.56, -6.91, -3.51, 0.000, -0.992, 0.288, 18:42:55.776, 1590856975776
118, -19.27, -7.30, -11.75, -9.12, 0.000, -0.992, 0.288, 18:42:55.776, 1590856975776
119, 6.96, 12.97, 11.36, 8.14, 0.000, -0.992, 0.288, 18:42:55.776, 1590856975776
120, 40.91, 46.90, 40.22, 37.68, 0.000, -0.992, 0.288, 18:42:55.776, 1590856975776
121, -12.52, -7.54, -8.78, -9.33, 0.000, -0.992, 0.288, 18:42:55.777, 1590856975777
122, -15.63, 0.62, -9.15, -5.17, 0.000, -0.992, 0.288, 18:42:55.777, 1590856975777
123, 2.81, 9.64, 4.25, 9.80, 0.000, -0.992, 0.288, 18:42:55.789, 1590856975789
124, 36.38, 34.13, 34.80, 44.58, 0.000, -0.992, 0.288, 18:42:55.789, 1590856975789
125, -4.52, 6.40, -1.76, -3.23, 0.000, -0.992, 0.288, 18:42:55.790, 1590856975790
126, -14.94, -4.63, -12.45, -6.75, -0.048, -0.992, 0.288, 18:42:55.790, 1590856975790
127, 0.59, 7.20, 6.54, 6.00, -0.048, -0.992, 0.288, 18:42:55.804, 1590856975804
128, 46.28, 41.86, 38.84, 48.22, -0.048, -0.992, 0.288, 18:42:55.804, 1590856975804
129, -8.07, -5.41, -0.95, -2.70, -0.048, -0.992, 0.288, 18:42:55.836, 1590856975836
130, -19.34, -10.70, -16.12, -19.63, -0.048, -0.992, 0.288, 18:42:55.836, 1590856975836
131, 10.85, 11.67, 12.90, 16.47, -0.048, -0.992, 0.288, 18:42:55.836, 1590856975836
132, 39.85, 39.91, 36.15, 37.40, -0.048, -0.992, 0.288, 18:42:55.836, 1590856975836
133, -10.58, -1.37, -8.75, -4.86, -0.048, -0.992, 0.288, 18:42:55.837, 1590856975837
134, -15.41, -7.81, -9.62, -9.16, -0.048, -0.992, 0.288, 18:42:55.837, 1590856975837
135, 5.33, 11.78, 5.88, 8.10, -0.048, -0.992, 0.288, 18:42:55.850, 1590856975850
136, 37.61, 37.23, 37.07, 38.63, -0.048, -0.992, 0.288, 18:42:55.850, 1590856975850
137, -5.90, 0.68, 0.10, 1.28, -0.048, -0.992, 0.288, 18:42:55.850, 1590856975850
138, -13.94, -9.26, -8.52, -12.42, -0.048, -0.992, 0.288, 18:42:55.850, 1590856975850
139, -2.97, 8.83, 1.95, 3.38, -0.048, -0.992, 0.288, 18:42:55.864, 1590856975864
140, 46.72, 43.77, 39.61, 46.49, -0.048, -0.992, 0.288, 18:42:55.864, 1590856975864
141, -7.16, -2.02, -5.67, -2.87, -0.048, -0.992, 0.288, 18:42:55.895, 1590856975895
142, -15.60, -7.95, -12.04, -13.54, -0.048, -0.992, 0.288, 18:42:55.895, 1590856975895
143, 7.90, 16.49, 11.80, 11.24, -0.048, -0.992, 0.288, 18:42:55.896, 1590856975896
144, 40.64, 41.49, 33.72, 43.87, -0.048, -0.992, 0.288, 18:42:55.896, 1590856975896
145, -5.80, -3.27, -1.31, -2.39, -0.048, -0.992, 0.288, 18:42:55.897, 1590856975897
146, -10.59, -4.39, -6.58, -8.37, -0.048, -0.992, 0.304, 18:42:55.897, 1590856975897
147, 2.98, 10.77, 8.53, 5.26, -0.048, -0.992, 0.304, 18:42:55.910, 1590856975910
148, 40.66, 39.19, 30.47, 43.46, -0.048, -0.992, 0.304, 18:42:55.910, 1590856975910
149, -1.61, 4.62, 1.12, -0.86, -0.048, -0.992, 0.304, 18:42:55.911, 1590856975911
150, -12.81, -9.94, -11.07, -10.73, -0.048, -0.992, 0.304, 18:42:55.911, 1590856975911
151, 2.47, 7.69, 5.92, 3.37, -0.048, -0.992, 0.304, 18:42:55.924, 1590856975924
152, 45.68, 41.58, 42.04, 44.88, -0.048, -0.992, 0.304, 18:42:55.924, 1590856975924
153, -9.83, -0.51, -5.83, -0.31, -0.048, -0.992, 0.304, 18:42:55.940, 1590856975940
154, -20.38, -14.23, -15.08, -14.40, -0.048, -0.992, 0.304, 18:42:55.940, 1590856975940
155, 12.84, 20.44, 10.87, 14.62, -0.048, -0.992, 0.304, 18:42:55.940, 1590856975940
156, 43.62, 42.13, 34.25, 41.74, -0.048, -0.992, 0.304, 18:42:55.940, 1590856975940
157, -10.23, -3.09, -7.37, -2.38, -0.048, -0.992, 0.304, 18:42:55.954, 1590856975954
158, -11.38, -7.44, -8.76, -9.69, -0.048, -0.992, 0.304, 18:42:55.954, 1590856975954
159, 2.73, 9.61, 10.77, 9.87, -0.048, -0.992, 0.304, 18:42:55.970, 1590856975970
160, 37.88, 35.35, 41.21, 42.35, -0.048, -0.992, 0.304, 18:42:55.970, 1590856975970
161, -1.48, 1.94, 6.43, 3.48, -0.048, -0.992, 0.304, 18:42:55.970, 1590856975970
162, -16.56, -10.05, -16.22, -13.15, -0.048, -0.992, 0.304, 18:42:55.970, 1590856975970
163, -1.23, 4.62, 2.47, 3.97, -0.048, -0.992, 0.304, 18:42:56.000, 1590856976000
164, 44.27, 46.87, 41.40, 46.88, -0.048, -0.992, 0.304, 18:42:56.000, 1590856976000
165, -5.24, -3.00, -3.78, -2.25, -0.048, -0.992, 0.304, 18:42:56.001, 1590856976001
166, -15.54, -10.86, -10.09, -10.72, -0.048, -1.008, 0.304, 18:42:56.001, 1590856976001
167, 11.34, 11.43, 11.30, 14.74, -0.048, -1.008, 0.304, 18:42:56.002, 1590856976002
168, 40.82, 33.79, 35.01, 39.95, -0.048, -1.008, 0.304, 18:42:56.002, 1590856976002
169, -7.75, -4.56, -7.57, -4.91, -0.048, -1.008, 0.304, 18:42:56.014, 1590856976014
170, -15.14, -5.07, -9.98, -3.73, -0.048, -1.008, 0.304, 18:42:56.014, 1590856976014
171, 4.63, 13.81, 5.93, 5.06, -0.048, -1.008, 0.304, 18:42:56.030, 1590856976030
172, 39.82, 38.93, 37.34, 40.46, -0.048, -1.008, 0.304, 18:42:56.030, 1590856976030
173, -0.18, 4.64, 2.55, 0.80, -0.048, -1.008, 0.304, 18:42:56.030, 1590856976030
174, -13.66, -6.17, -13.92, -13.36, -0.048, -1.008, 0.304, 18:42:56.030, 1590856976030
175, 0.55, 3.00, 3.64, 7.13, -0.048, -1.008, 0.304, 18:42:56.044, 1590856976044
176, 43.03, 41.74, 37.13, 45.60, -0.048, -1.008, 0.304, 18:42:56.044, 1590856976044
177, -7.72, -0.04, -3.29, -0.69, -0.048, -1.008, 0.304, 18:42:56.060, 1590856976060
178, -20.53, -13.63, -14.46, -16.53, -0.048, -1.008, 0.304, 18:42:56.060, 1590856976060
179, 12.24, 15.56, 10.14, 12.48, -0.048, -1.008, 0.304, 18:42:56.060, 1590856976060
180, 38.76, 41.31, 32.01, 42.31, -0.048, -1.008, 0.304, 18:42:56.060, 1590856976060
181, -7.68, -0.42, -2.65, -8.69, -0.048, -1.008, 0.304, 18:42:56.074, 1590856976074
182, -10.21, -8.59, -5.30, -9.05, -0.048, -1.008, 0.304, 18:42:56.074, 1590856976074
183, 6.20, 10.78, 4.19, 9.43, -0.048, -1.008, 0.304, 18:42:56.090, 1590856976090
184, 36.32, 34.38, 36.85, 39.06, -0.048, -1.008, 0.304, 18:42:56.090, 1590856976090
185, 1.54, 7.54, -0.20, 6.69, -0.048, -1.008, 0.304, 18:42:56.090, 1590856976090
186, -18.61, -9.30, -10.71, -7.09, -0.048, -1.008, 0.288, 18:42:56.090, 1590856976090
187, -0.62, 6.61, -0.70, 4.21, -0.048, -1.008, 0.288, 18:42:56.104, 1590856976104
188, 44.67, 41.97, 38.03, 45.11, -0.048, -1.008, 0.288, 18:42:56.104, 1590856976104
189, -5.82, -2.83, -2.42, -2.88, -0.048, -1.008, 0.288, 18:42:56.119, 1590856976119
190, -18.87, -13.13, -15.75, -12.47, -0.048, -1.008, 0.288, 18:42:56.119, 1590856976119
191, 9.48, 15.22, 7.14, 13.85, -0.048, -1.008, 0.288, 18:42:56.120, 1590856976120
192, 40.38, 38.40, 36.06, 42.59, -0.048, -1.008, 0.288, 18:42:56.120, 1590856976120
193, -10.06, -5.43, -7.56, -8.66, -0.048, -1.008, 0.288, 18:42:56.134, 1590856976134
194, -13.14, -4.71, -10.38, -11.60, -0.048, -1.008, 0.288, 18:42:56.134, 1590856976134
195, 3.35, 9.44, 7.29, 7.10, -0.048, -1.008, 0.288, 18:42:56.150, 1590856976150
196, 36.73, 37.17, 31.76, 43.06, -0.048, -1.008, 0.288, 18:42:56.150, 1590856976150
197, -0.59, 5.68, 4.08, 4.51, -0.048, -1.008, 0.288, 18:42:56.165, 1590856976165
198, -20.98, -7.95, -14.54, -10.08, -0.048, -1.008, 0.288, 18:42:56.165, 1590856976165
199, 5.21, 2.40, 2.21, 4.96, -0.048, -1.008, 0.288, 18:42:56.166, 1590856976166
200, 46.31, 42.13, 40.35, 48.46, -0.048, -1.008, 0.288, 18:42:56.166, 1590856976166
0, -5.80, 2.72, -0.84, -0.84, -0.048, -1.008, 0.288, 18:42:56.167, 1590856976167
1, -22.96, -12.45, -14.19, -21.93, -0.048, -1.008, 0.288, 18:42:56.179, 1590856976179
2, 8.14, 11.87, 8.88, 10.57, -0.048, -1.008, 0.288, 18:42:56.179, 1590856976179
3, 40.53, 36.38, 38.60, 42.23, -0.048, -1.008, 0.288, 18:42:56.195, 1590856976195
4, -11.51, 0.91, -8.51, -3.43, -0.048, -1.008, 0.288, 18:42:56.195, 1590856976195
5, -8.63, 0.22, -10.00, -12.54, -0.048, -1.008, 0.288, 18:42:56.196, 1590856976196
6, 0.79, 10.47, 4.40, 5.45, -0.048, -1.008, 0.304, 18:42:56.196, 1590856976196
7, 37.45, 33.74, 32.00, 39.01, -0.048, -1.008, 0.304, 18:42:56.226, 1590856976226
8, -1.28, 5.60, -2.91, -1.74, -0.048, -1.008, 0.304, 18:42:56.226, 1590856976226
9, -18.22, -8.32, -8.52, -11.85, -0.048, -1.008, 0.304, 18:42:56.226, 1590856976226
10, 2.18, 4.87, -0.49, 6.29, -0.048, -1.008, 0.304, 18:42:56.226, 1590856976226
11, 46.14, 44.90, 39.70, 45.88, -0.048, -1.008, 0.304, 18:42:56.227, 1590856976227
12, -6.10, -1.27, -1.39, -2.25, -0.048, -1.008, 0.304, 18:42:56.227, 1590856976227
13, -18.42, -11.66, -15.24, -14.95, -0.048, -1.008, 0.304, 18:42:56.239, 1590856976239
14, 9.62, 9.85, 5.27, 7.80, -0.048, -1.008, 0.304, 18:42:56.239, 1590856976239
15, 40.62, 37.89, 37.54, 44.66, -0.048, -1.008, 0.304, 18:42:56.254, 1590856976254
16, -6.82, -0.22, -6.29, -4.17, -0.048, -1.008, 0.304, 18:42:56.254, 1590856976254
17, -9.06, -1.42, -8.79, -8.76, -0.048, -1.008, 0.304, 18:42:56.255, 1590856976255
18, 4.58, 9.33, 2.63, 5.19, -0.048, -1.008, 0.304, 18:42:56.255, 1590856976255
19, 36.85, 38.73, 33.87, 40.93, -0.048, -1.008, 0.304, 18:42:56.285, 1590856976285
20, -5.65, 5.66, -3.20, 1.96, -0.048, -1.008, 0.304, 18:42:56.285, 1590856976285
21, -14.57, -6.86, -16.19, -10.82, -0.048, -1.008, 0.304, 18:42:56.286, 1590856976286
22, -0.40, 5.94, -1.53, 3.97, -0.048, -1.008, 0.304, 18:42:56.286, 1590856976286
23, 43.86, 44.86, 42.10, 47.18, -0.048, -1.008, 0.304, 18:42:56.287, 1590856976287
24, -5.08, -2.66, -4.31, 0.05, -0.048, -1.008, 0.304, 18:42:56.287, 1590856976287
25, -22.78, -10.48, -18.21, -15.06, -0.048, -1.008, 0.304, 18:42:56.299, 1590856976299
26, 7.67, 12.69, 7.55, 11.09, -0.048, -1.008, 0.288, 18:42:56.299, 1590856976299
27, 44.39, 44.35, 41.45, 38.20, -0.048, -1.008, 0.288, 18:42:56.330, 1590856976330
28, -6.20, -2.41, -7.00, -5.04, -0.048, -1.008, 0.288, 18:42:56.330, 1590856976330
29, -11.70, -1.80, -8.59, -8.16, -0.048, -1.008, 0.288, 18:42:56.331, 1590856976331
30, 3.28, 7.42, 2.53, 7.94, -0.048, -1.008, 0.288, 18:42:56.331, 1590856976331
31, 40.07, 45.07, 35.52, 45.60, -0.048, -1.008, 0.288, 18:42:56.332, 1590856976332
32, -3.14, 2.04, 1.84, -0.37, -0.048, -1.008, 0.288, 18:42:56.332, 1590856976332
33, -15.29, -10.39, -14.58, -12.23, -0.048, -1.008, 0.288, 18:42:56.345, 1590856976345
34, -1.19, 7.80, 2.79, 5.51, -0.048, -1.008, 0.288, 18:42:56.345, 1590856976345
35, 44.47, 44.05, 41.39, 45.65, -0.048, -1.008, 0.288, 18:42:56.345, 1590856976345
36, -0.66, -0.91, -1.83, -1.28, -0.048, -1.008, 0.288, 18:42:56.345, 1590856976345
37, -19.32, -10.30, -16.03, -14.56, -0.048, -1.008, 0.288, 18:42:56.359, 1590856976359
38, 8.44, 11.59, 7.72, 11.65, -0.048, -1.008, 0.288, 18:42:56.359, 1590856976359
39, 40.70, 42.69, 36.47, 38.83, -0.048, -1.008, 0.288, 18:42:56.390, 1590856976390
40, -7.19, 1.65, -9.28, -6.78, -0.048, -1.008, 0.288, 18:42:56.390, 1590856976390
41, -10.78, -4.05, -7.37, -9.88, -0.048, -1.008, 0.288, 18:42:56.391, 1590856976391
42, 1.54, 8.34, 2.43, 6.07, -0.048, -1.008, 0.288, 18:42:56.391, 1590856976391
43, 37.83, 39.73, 35.27, 40.75, -0.048, -1.008, 0.288, 18:42:56.392, 1590856976392
44, -5.48, 4.26, -1.33, 4.11, -0.048, -1.008, 0.288, 18:42:56.392, 1590856976392
45, -16.20, -8.58, -12.82, -12.94, -0.048, -1.008, 0.288, 18:42:56.405, 1590856976405
46, 1.62, 8.87, 2.96, 5.76, -0.048, -0.992, 0.288, 18:42:56.405, 1590856976405
47, 46.77, 45.27, 35.01, 42.28, -0.048, -0.992, 0.288, 18:42:56.405, 1590856976405
48, -1.35, 1.62, -0.12, -1.04, -0.048, -0.992, 0.288, 18:42:56.405, 1590856976405
49, -21.19, -12.88, -17.56, -12.54, -0.048, -0.992, 0.288, 18:42:56.419, 1590856976419
50, 3.96, 9.73, 2.97, 12.16, -0.048, -0.992, 0.288, 18:42:56.419, 1590856976419
51, 41.00, 43.45, 39.74, 42.38, -0.048, -0.992, 0.288, 18:42:56.435, 1590856976435
52, -7.74, 2.05, -3.84, 0.52, -0.048, -0.992, 0.288, 18:42:56.435, 1590856976435
53, -9.19, -4.43, -9.06, -11.37, -0.048, -0.992, 0.288, 18:42:56.435, 1590856976435
54, 5.54, 6.47, 0.80, 8.20, -0.048, -0.992, 0.288, 18:42:56.435, 1590856976435
55, 36.31, 34.79, 37.42, 42.52, -0.048, -0.992, 0.288, 18:42:56.449, 1590856976449
56, -2.72, 5.98, 2.43, 6.29, -0.048, -0.992, 0.288, 18:42:56.449, 1590856976449
57, -17.27, -7.73, -9.98, -11.90, -0.048, -0.992, 0.288, 18:42:56.480, 1590856976480
58, -3.17, 4.87, 4.09, 1.00, -0.048, -0.992, 0.288, 18:42:56.480, 1590856976480
59, 43.65, 43.11, 40.35, 45.49, -0.048, -0.992, 0.288, 18:42:56.481, 1590856976481
60, -8.04, 1.79, -4.60, -3.40, -0.048, -0.992, 0.288, 18:42:56.481, 1590856976481
61, -21.46, -12.01, -16.98, -16.04, -0.048, -0.992, 0.288, 18:42:56.482, 1590856976482
62, 8.97, 9.42, 7.72, 10.95, -0.048, -0.992, 0.288, 18:42:56.482, 1590856976482
63, 44.09, 37.85, 33.99, 42.17, -0.048, -0.992, 0.288, 18:42:56.494, 1590856976494
64, -7.00, -2.11, -2.53, -2.85, -0.048, -0.992, 0.288, 18:42:56.494, 1590856976494
65, -12.44, -9.68, -12.32, -10.37, -0.048, -0.992, 0.288, 18:42:56.495, 1590856976495
66, 0.49, 9.52, 1.20, 11.37, -0.048, -1.008, 0.304, 18:42:56.495, 1590856976495
67, 34.98, 40.24, 31.54, 38.21, -0.048, -1.008, 0.304, 18:42:56.510, 1590856976510
68, -3.21, 4.77, 2.33, -0.15, -0.048, -1.008, 0.304, 18:42:56.510, 1590856976510
69, -15.69, -5.59, -10.91, -9.93, -0.048, -1.008, 0.304, 18:42:56.525, 1590856976525
70, -0.74, 3.96, 0.65, 6.99, -0.048, -1.008, 0.304, 18:42:56.525, 1590856976525
71, 44.31, 42.95, 40.50, 45.48, -0.048, -1.008, 0.304, 18:42:56.525, 1590856976525
72, -4.57, 1.39, -6.08, -0.79, -0.048, -1.008, 0.304, 18:42:56.525, 1590856976525
73, -18.82, -12.42, -16.63, -12.11, -0.048, -1.008, 0.304, 18:42:56.539, 1590856976539
74, 9.82, 8.31, 4.47, 10.21, -0.048, -1.008, 0.304, 18:42:56.539, 1590856976539
75, 42.05, 40.08, 35.53, 41.93, -0.048, -1.008, 0.304, 18:42:56.555, 1590856976555
76, -9.57, -1.09, -10.86, -0.97, -0.048, -1.008, 0.304, 18:42:56.555, 1590856976555
77, -11.72, -4.22, -11.72, -7.74, -0.048, -1.008, 0.304, 18:42:56.555, 1590856976555
78, 2.73, 6.79, 3.09, 2.65, -0.048, -1.008, 0.304, 18:42:56.555, 1590856976555
79, 35.34, 35.78, 37.14, 40.19, -0.048, -1.008, 0.304, 18:42:56.569, 1590856976569
80, 0.51, 4.19, -1.52, 0.98, -0.048, -1.008, 0.304, 18:42:56.569, 1590856976569
81, -15.29, -9.25, -11.78, -11.28, -0.048, -1.008, 0.304, 18:42:56.600, 1590856976600
82, 5.63, 3.85, 1.51, 1.66, -0.048, -1.008, 0.304, 18:42:56.600, 1590856976600
83, 46.35, 41.17, 44.24, 49.02, -0.048, -1.008, 0.304, 18:42:56.601, 1590856976601
84, -4.80, -7.52, -1.88, 3.87, -0.048, -1.008, 0.304, 18:42:56.601, 1590856976601
85, -23.31, -14.07, -14.75, -14.84, -0.048, -1.008, 0.304, 18:42:56.602, 1590856976602
86, 9.96, 14.49, 8.79, 9.95, -0.048, -0.992, 0.304, 18:42:56.602, 1590856976602
87, 42.45, 40.46, 36.65, 41.28, -0.048, -0.992, 0.304, 18:42:56.615, 1590856976615
88, -5.08, -3.83, -4.37, 0.00, -0.048, -0.992, 0.304, 18:42:56.615, 1590856976615
89, -14.33, -7.06, -9.80, -8.49, -0.048, -0.992, 0.304, 18:42:56.615, 1590856976615
90, 2.72, 10.43, 4.88, 5.06, -0.048, -0.992, 0.304, 18:42:56.615, 1590856976615
91, 40.77, 33.88, 35.39, 39.03, -0.048, -0.992, 0.304, 18:42:56.629, 1590856976629
92, -1.51, 4.14, 1.66, 7.10, -0.048, -0.992, 0.304, 18:42:56.629, 1590856976629
93, -18.36, -6.48, -11.76, -9.78, -0.048, -0.992, 0.304, 18:42:56.645, 1590856976645
94, -0.22, 7.56, 0.25, 4.56, -0.048, -0.992, 0.304, 18:42:56.645, 1590856976645
95, 45.82, 43.87, 38.84, 44.92, -0.048, -0.992, 0.304, 18:42:56.645, 1590856976645
96, -4.03, 0.58, -4.55, -3.65, -0.048, -0.992, 0.304, 18:42:56.645, 1590856976645
97, -17.63, -13.12, -19.20, -17.44, -0.048, -0.992, 0.304, 18:42:56.675, 1590856976675
98, 10.22, 9.78, 10.88, 8.75, -0.048, -0.992, 0.304, 18:42:56.675, 1590856976675
99, 39.00, 42.69, 37.92, 48.61, -0.048, -0.992, 0.304, 18:42:56.676, 1590856976676
100, -6.20, 2.88, -7.67, -2.49, -0.048, -0.992, 0.304, 18:42:56.676, 1590856976676
101, -12.70, -5.74, -11.13, -8.47, -0.048, -0.992, 0.304, 18:42:56.677, 1590856976677
102, 3.80, 6.74, 0.70, 6.08, -0.048, -0.992, 0.304, 18:42:56.677, 1590856976677
103, 38.07, 37.43, 32.46, 38.01, -0.048, -0.992, 0.304, 18:42:56.689, 1590856976689
104, -0.71, 8.76, -1.51, 4.37, -0.048, -0.992, 0.304, 18:42:56.689, 1590856976689
105, -16.66, -5.19, -12.60, -14.76, -0.048, -0.992, 0.304, 18:42:56.720, 1590856976720
106, -4.92, 3.66, 2.57, 4.63, -0.048, -0.992, 0.304, 18:42:56.720, 1590856976720
107, 44.12, 46.17, 37.17, 46.92, -0.048, -0.992, 0.304, 18:42:56.721, 1590856976721
108, -7.39, 3.52, 0.83, -3.81, -0.048, -0.992, 0.304, 18:42:56.721, 1590856976721
109, -19.48, -16.27, -16.45, -13.07, -0.048, -0.992, 0.304, 18:42:56.722, 1590856976722
110, 1.07, 13.36, 9.68, 10.96, -0.048, -0.992, 0.304, 18:42:56.722, 1590856976722
111, 37.07, 38.14, 38.99, 44.74, -0.048, -0.992, 0.304, 18:42:56.735, 1590856976735
112, -9.88, -5.12, -3.68, -2.48, -0.048, -0.992, 0.304, 18:42:56.735, 1590856976735
113, -13.40, -6.80, -14.28, -5.08, -0.048, -0.992, 0.304, 18:42:56.736, 1590856976736
114, 7.26, 8.12, 8.59, 6.12, -0.048, -0.992, 0.304, 18:42:56.736, 1590856976736
115, 37.10, 41.61, 39.60, 42.76, -0.048, -0.992, 0.304, 18:42:56.749, 1590856976749
116, 1.50, 3.04, 3.30, 2.75, -0.048, -0.992, 0.304, 18:42:56.749, 1590856976749
117, -17.70, -9.25, -10.51, -12.21, -0.048, -0.992, 0.304, 18:42:56.764, 1590856976764
118, -1.26, 9.72, 1.23, 9.91, -0.048, -0.992, 0.304, 18:42:56.764, 1590856976764
119, 42.49, 45.93, 37.35, 47.47, -0.048, -0.992, 0.304, 18:42:56.780, 1590856976780
120, -7.06, 5.32, -3.84, 1.77, -0.048, -0.992, 0.304, 18:42:56.780, 1590856976780
121, -20.29, -14.93, -16.21, -13.77, -0.048, -0.992, 0.304, 18:42:56.780, 1590856976780
122, 7.88, 13.15, 8.96, 5.05, -0.048, -0.992, 0.304, 18:42:56.780, 1590856976780
123, 42.03, 42.13, 41.05, 42.43, -0.048, -0.992, 0.304, 18:42:56.795, 1590856976795
124, -4.50, 2.16, -10.01, -0.55, -0.048, -0.992, 0.304, 18:42:56.795, 1590856976795
125, -12.56, -6.09, -14.97, -9.45, -0.048, -0.992, 0.304, 18:42:56.795, 1590856976795
126, 3.90, 5.37, -1.14, 8.42, -0.048, -0.992, 0.304, 18:42:56.795, 1590856976795
127, 38.34, 37.31, 35.55, 42.39, -0.048, -0.992, 0.304, 18:42:56.842, 1590856976842
128, -0.40, 8.32, 3.54, 5.95, -0.048, -0.992, 0.304, 18:42:56.842, 1590856976842
129, -16.86, -7.38, -12.59, -11.16, -0.048, -0.992, 0.304, 18:42:56.843, 1590856976843
130, 1.47, 5.34, 2.51, 2.85, -0.048, -0.992, 0.304, 18:42:56.843, 1590856976843
131, 46.07, 41.49, 40.27, 43.87, -0.048, -0.992, 0.304, 18:42:56.843, 1590856976843
132, -4.31, -2.45, 2.01, 0.22, -0.048, -0.992, 0.304, 18:42:56.843, 1590856976843
133, -23.22, -9.73, -18.16, -17.67, -0.048, -0.992, 0.304, 18:42:56.844, 1590856976844
134, 6.55, 15.14, 9.07, 7.82, -0.048, -0.992, 0.304, 18:42:56.844, 1590856976844
135, 41.02, 43.22, 33.90, 38.11, -0.048, -0.992, 0.304, 18:42:56.855, 1590856976855
136, -5.97, -2.83, -2.31, -3.86, -0.048, -0.992, 0.304, 18:42:56.855, 1590856976855
137, -13.29, -11.95, -13.19, -15.40, -0.048, -0.992, 0.304, 18:42:56.856, 1590856976856
138, 5.56, 10.95, 4.52, 10.20, -0.048, -0.992, 0.304, 18:42:56.856, 1590856976856
139, 38.45, 38.21, 38.65, 36.33, -0.048, -0.992, 0.304, 18:42:56.885, 1590856976885
140, -1.96, 2.79, 1.91, 5.90, -0.048, -0.992, 0.304, 18:42:56.885, 1590856976885
141, -17.56, -9.25, -6.03, -12.02, -0.048, -0.992, 0.304, 18:42:56.886, 1590856976886
142, 1.78, 8.40, 1.90, 5.16, -0.048, -0.992, 0.304, 18:42:56.886, 1590856976886
143, 46.42, 42.56, 41.11, 44.01, -0.048, -0.992, 0.304, 18:42:56.887, 1590856976887
144, -4.20, 1.26, 2.05, -0.52, -0.048, -0.992, 0.304, 18:42:56.887, 1590856976887
145, -18.37, -13.12, -19.62, -18.42, -0.048, -0.992, 0.304, 18:42:56.899, 1590856976899
146, 4.57, 10.96, 6.47, 8.00, -0.048, -0.992, 0.304, 18:42:56.899, 1590856976899
147, 41.80, 44.01, 40.85, 39.77, -0.048, -0.992, 0.304, 18:42:56.915, 1590856976915
148, -4.71, 3.58, -4.04, -3.03, -0.048, -0.992, 0.304, 18:42:56.915, 1590856976915
149, -6.01, 1.63, -9.41, -4.85, -0.048, -0.992, 0.304, 18:42:56.915, 1590856976915
150, 2.80, 11.08, 1.45, 4.53, -0.048, -0.992, 0.304, 18:42:56.915, 1590856976915
151, 37.68, 33.05, 32.45, 41.10, -0.048, -0.992, 0.304, 18:42:56.929, 1590856976929
152, 4.17, 10.27, 2.06, 4.86, -0.048, -0.992, 0.304, 18:42:56.929, 1590856976929
153, -17.21, -10.35, -13.47, -15.18, -0.048, -0.992, 0.304, 18:42:56.945, 1590856976945
154, 1.88, 5.62, 1.43, 4.23, -0.048, -0.992, 0.304, 18:42:56.945, 1590856976945
155, 45.47, 44.31, 42.01, 46.31, -0.048, -0.992, 0.304, 18:42:56.946, 1590856976946
156, -2.03, 0.36, 0.55, -0.83, -0.048, -0.992, 0.304, 18:42:56.946, 1590856976946
157, -24.05, -14.78, -17.27, -16.40, -0.048, -0.992, 0.304, 18:42:56.960, 1590856976960
158, 3.29, 9.52, 2.71, 10.03, -0.048, -0.992, 0.304, 18:42:56.960, 1590856976960
159, 41.13, 31.86, 41.50, 42.06, -0.048, -0.992, 0.304, 18:42:56.975, 1590856976975
160, -6.58, 1.72, -10.46, -0.95, -0.048, -0.992, 0.304, 18:42:56.975, 1590856976975
161, -13.86, -4.47, -7.80, -8.96, -0.048, -0.992, 0.304, 18:42:56.976, 1590856976976
162, 1.84, 10.45, 2.43, -0.39, -0.048, -0.992, 0.304, 18:42:56.976, 1590856976976
163, 39.48, 38.70, 32.06, 42.22, -0.048, -0.992, 0.304, 18:42:56.989, 1590856976989
164, 2.74, 8.84, 1.63, 4.67, -0.048, -0.992, 0.304, 18:42:56.989, 1590856976989
165, -19.12, -12.39, -12.46, -11.24, -0.048, -0.992, 0.304, 18:42:57.004, 1590856977004
166, -0.69, 4.70, 4.54, 3.23, -0.064, -0.992, 0.320, 18:42:57.004, 1590856977004
167, 47.00, 47.90, 41.83, 48.29, -0.064, -0.992, 0.320, 18:42:57.005, 1590856977005
168, -3.61, 4.30, -0.74, 4.37, -0.064, -0.992, 0.320, 18:42:57.005, 1590856977005
169, -18.61, -9.89, -16.40, -13.94, -0.064, -0.992, 0.320, 18:42:57.019, 1590856977019
170, 9.48, 11.76, 7.81, 12.77, -0.064, -0.992, 0.320, 18:42:57.019, 1590856977019
171, 40.13, 40.09, 35.62, 44.07, -0.064, -0.992, 0.320, 18:42:57.035, 1590856977035
172, -6.75, -0.10, -2.58, -4.35, -0.064, -0.992, 0.320, 18:42:57.035, 1590856977035
173, -12.27, -6.81, -4.87, -5.63, -0.064, -0.992, 0.320, 18:42:57.036, 1590856977036
174, 0.62, 4.56, 4.21, 6.31, -0.064, -0.992, 0.320, 18:42:57.036, 1590856977036
175, 37.80, 35.62, 32.35, 38.52, -0.064, -0.992, 0.320, 18:42:57.049, 1590856977049
176, -1.90, 5.10, 5.22, 7.07, -0.064, -0.992, 0.320, 18:42:57.049, 1590856977049
177, -17.19, -11.35, -12.67, -9.94, -0.064, -0.992, 0.320, 18:42:57.064, 1590856977064
178, 1.20, 3.36, -3.50, 5.94, -0.064, -0.992, 0.320, 18:42:57.064, 1590856977064
179, 44.78, 42.40, 36.82, 49.42, -0.064, -0.992, 0.320, 18:42:57.080, 1590856977080
180, -3.08, -2.71, -2.95, 3.18, -0.064, -0.992, 0.320, 18:42:57.080, 1590856977080
181, -21.88, -16.52, -14.87, -18.89, -0.064, -0.992, 0.320, 18:42:57.081, 1590856977081
182, 2.46, 9.11, 7.03, 8.97, -0.064, -0.992, 0.320, 18:42:57.081, 1590856977081
183, 37.45, 40.50, 37.95, 45.00, -0.064, -0.992, 0.320, 18:42:57.095, 1590856977095
184, -4.92, 3.64, -1.18, -3.56, -0.064, -0.992, 0.320, 18:42:57.095, 1590856977095
185, -16.17, -5.50, -13.47, -10.99, -0.064, -0.992, 0.320, 18:42:57.095, 1590856977095
186, 4.67, 10.62, 5.18, 5.30, -0.048, -0.992, 0.304, 18:42:57.095, 1590856977095
187, 36.62, 41.37, 34.55, 44.10, -0.048, -0.992, 0.304, 18:42:57.110, 1590856977110
188, 2.34, 5.77, 4.42, 4.56, -0.048, -0.992, 0.304, 18:42:57.110, 1590856977110
189, -15.44, -6.45, -10.13, -14.36, -0.048, -0.992, 0.304, 18:42:57.125, 1590856977125
190, 0.72, 2.69, 4.84, 4.92, -0.048, -0.992, 0.304, 18:42:57.125, 1590856977125
191, 44.57, 38.03, 43.69, 49.37, -0.048, -0.992, 0.304, 18:42:57.126, 1590856977126
192, -2.29, 0.03, 4.35, -0.70, -0.048, -0.992, 0.304, 18:42:57.126, 1590856977126
193, -24.54, -15.93, -15.75, -14.96, -0.048, -0.992, 0.304, 18:42:57.139, 1590856977139
194, 5.84, 8.70, 4.93, 6.74, -0.048, -0.992, 0.304, 18:42:57.139, 1590856977139
195, 43.92, 40.48, 40.91, 43.51, -0.048, -0.992, 0.304, 18:42:57.171, 1590856977171
196, -4.72, 0.30, -1.27, 1.45, -0.048, -0.992, 0.304, 18:42:57.171, 1590856977171
197, -16.18, -3.68, -9.62, -5.68, -0.048, -0.992, 0.304, 18:42:57.172, 1590856977172
198, 2.06, 6.77, 3.05, 5.51, -0.048, -0.992, 0.304, 18:42:57.172, 1590856977172
199, 37.75, 39.37, 36.05, 37.79, -0.048, -0.992, 0.304, 18:42:57.173, 1590856977173
200, -3.04, 7.72, 1.92, -0.93, -0.048, -0.992, 0.304, 18:42:57.173, 1590856977173
0, -18.32, -6.77, -12.93, -11.36, -0.048, -0.992, 0.304, 18:42:57.173, 1590856977173
1, -1.74, 6.64, -1.24, 4.94, -0.048, -0.992, 0.304, 18:42:57.184, 1590856977184
2, 43.02, 49.52, 39.48, 46.07, -0.048, -0.992, 0.304, 18:42:57.184, 1590856977184
3, -1.54, 4.09, -4.97, -0.92, -0.048, -0.992, 0.304, 18:42:57.199, 1590856977199
4, -23.36, -10.72, -11.25, -19.05, -0.048, -0.992, 0.304, 18:42:57.199, 1590856977199
5, 5.25, 12.21, 10.26, 10.68, -0.048, -0.992, 0.304, 18:42:57.214, 1590856977214
6, 42.44, 42.27, 36.77, 42.14, -0.064, -0.992, 0.304, 18:42:57.214, 1590856977214
7, -3.26, -3.69, -7.16, -2.81, -0.064, -0.992, 0.304, 18:42:57.215, 1590856977215
8, -14.02, -6.02, -10.96, -7.47, -0.064, -0.992, 0.304, 18:42:57.215, 1590856977215
9, 4.19, 10.31, 4.21, 9.83, -0.064, -0.992, 0.304, 18:42:57.245, 1590856977245
10, 38.46, 40.41, 39.22, 39.34, -0.064, -0.992, 0.304, 18:42:57.245, 1590856977245
11, 2.98, 4.58, 7.96, 10.53, -0.064, -0.992, 0.304, 18:42:57.246, 1590856977246
12, -17.97, -2.70, -15.18, -12.55, -0.064, -0.992, 0.304, 18:42:57.246, 1590856977246
13, -3.79, 9.25, 0.96, 7.85, -0.064, -0.992, 0.304, 18:42:57.247, 1590856977247
14, 42.05, 38.69, 39.53, 46.33, -0.064, -0.992, 0.304, 18:42:57.247, 1590856977247
15, 1.74, 9.55, -2.76, 4.60, -0.064, -0.992, 0.304, 18:42:57.275, 1590856977275
16, -14.27, -12.40, -19.24, -16.23, -0.064, -0.992, 0.304, 18:42:57.275, 1590856977275
17, 6.13, 10.14, 8.63, 8.57, -0.064, -0.992, 0.304, 18:42:57.289, 1590856977289
18, 39.05, 42.28, 40.03, 43.00, -0.064, -0.992, 0.304, 18:42:57.289, 1590856977289
19, -4.40, 3.10, -4.49, -6.13, -0.064, -0.992, 0.304, 18:42:57.306, 1590856977306
20, -13.90, -7.76, -8.99, -11.36, -0.064, -0.992, 0.304, 18:42:57.306, 1590856977306
21, 3.82, 6.05, 5.88, 3.49, -0.064, -0.992, 0.304, 18:42:57.306, 1590856977306
22, 36.13, 36.84, 32.88, 43.07, -0.064, -0.992, 0.304, 18:42:57.306, 1590856977306
23, 2.74, 4.57, 7.37, 5.84, -0.064, -0.992, 0.304, 18:42:57.307, 1590856977307
24, -19.30, -11.10, -10.30, -15.86, -0.064, -0.992, 0.304, 18:42:57.307, 1590856977307
25, -1.65, 8.61, -2.84, 0.39, -0.064, -0.992, 0.304, 18:42:57.319, 1590856977319
26, 44.24, 42.90, 36.09, 43.12, -0.080, -0.992, 0.304, 18:42:57.319, 1590856977319
27, -1.53, 4.92, -3.29, 5.89, -0.080, -0.992, 0.304, 18:42:57.336, 1590856977336
28, -21.01, -9.04, -13.40, -19.24, -0.080, -0.992, 0.304, 18:42:57.336, 1590856977336
29, 4.92, 8.71, 8.96, 8.77, -0.080, -0.992, 0.304, 18:42:57.336, 1590856977336
30, 45.99, 42.93, 37.22, 43.94, -0.080, -0.992, 0.304, 18:42:57.336, 1590856977336
31, -4.16, -1.25, -2.46, -0.29, -0.080, -0.992, 0.304, 18:42:57.337, 1590856977337
32, -14.34, -7.88, -11.32, -8.88, -0.080, -0.992, 0.304, 18:42:57.337, 1590856977337
33, 0.92, 8.19, 7.31, 4.72, -0.080, -0.992, 0.304, 18:42:57.350, 1590856977350
34, 36.89, 31.42, 29.76, 38.58, -0.080, -0.992, 0.304, 18:42:57.350, 1590856977350
35, 0.53, 5.68, 3.50, 5.74, -0.080, -0.992, 0.304, 18:42:57.350, 1590856977350
36, -17.23, -9.53, -13.82, -11.13, -0.080, -0.992, 0.304, 18:42:57.350, 1590856977350
37, -2.24, 0.09, 0.03, 3.62, -0.080, -0.992, 0.304, 18:42:57.397, 1590856977397
38, 43.44, 43.82, 39.40, 46.99, -0.080, -0.992, 0.304, 18:42:57.397, 1590856977397
