%OpenBCI Raw EEG Data
%Number of channels = 4
%Sample Rate = 200.0 Hz
%First Column = SampleIndex
%Last Column = Timestamp 
%Other Columns = EEG data in microvolts followed by Accel Data (in G) interleaved with Aux Data
0, 5492.10, 0.00, 0.00, 0.00, -0.048, -1.024, 0.064, 19:18:24.647, 1589044704647
1, 5690.85, 0.00, 0.00, 0.00, -0.048, -1.024, 0.064, 19:18:24.662, 1589044704662
2, 5409.46, 0.00, 0.00, 0.00, -0.048, -1.024, 0.064, 19:18:24.662, 1589044704662
3, 5034.77, 0.00, 0.00, 0.00, -0.048, -1.024, 0.064, 19:18:24.678, 1589044704678
4, 5101.49, 0.00, 0.00, 0.00, -0.048, -1.024, 0.064, 19:18:24.678, 1589044704678
5, 5277.61, 0.00, 0.00, 0.00, -0.048, -1.024, 0.064, 19:18:24.679, 1589044704679
6, 5001.23, 0.00, 0.00, 0.00, -0.048, -1.024, -0.176, 19:18:24.679, 1589044704679
7, 4645.09, 0.00, 0.00, 0.00, -0.048, -1.024, -0.176, 19:18:24.691, 1589044704691
8, 4721.79, 0.00, 0.00, 0.00, -0.048, -1.024, -0.176, 19:18:24.691, 1589044704691
9, 4894.94, 0.00, 0.00, 0.00, -0.048, -1.024, -0.176, 19:18:24.708, 1589044704708
10, 4647.44, 0.00, 0.00, 0.00, -0.048, -1.024, -0.176, 19:18:24.708, 1589044704708
11, 4304.44, 0.00, 0.00, 0.00, -0.048, -1.024, -0.176, 19:18:24.709, 1589044704709
12, 4358.86, 0.00, 0.00, 0.00, -0.048, -1.024, -0.176, 19:18:24.709, 1589044704709
13, 4554.46, 0.00, 0.00, 0.00, -0.048, -1.024, -0.176, 19:18:24.721, 1589044704721
14, 4322.42, 0.00, 0.00, 0.00, -0.048, -1.024, -0.176, 19:18:24.721, 1589044704721
15, 3961.04, 0.00, 0.00, 0.00, -0.048, -1.024, -0.176, 19:18:24.737, 1589044704737
16, 4028.77, 0.00, 0.00, 0.00, -0.048, -1.024, -0.176, 19:18:24.737, 1589044704737
17, 4259.81, 0.00, 0.00, 0.00, -0.048, -1.024, -0.176, 19:18:24.737, 1589044704737
18, 4007.56, 0.00, 0.00, 0.00, -0.048, -1.024, -0.176, 19:18:24.737, 1589044704737
19, 3654.13, 0.00, 0.00, 0.00, -0.048, -1.024, -0.176, 19:18:24.751, 1589044704751
20, 3748.90, 0.00, 0.00, 0.00, -0.048, -1.024, -0.176, 19:18:24.751, 1589044704751
21, 3973.45, 0.00, 0.00, 0.00, -0.048, -1.024, -0.176, 19:18:24.767, 1589044704767
22, 3703.94, 0.00, 0.00, 0.00, -0.048, -1.024, -0.176, 19:18:24.767, 1589044704767
23, 3366.02, 0.00, 0.00, 0.00, -0.048, -1.024, -0.176, 19:18:24.767, 1589044704767
24, 3469.27, 0.00, 0.00, 0.00, -0.048, -1.024, -0.176, 19:18:24.767, 1589044704767
25, 3674.55, 0.00, 0.00, 0.00, -0.048, -1.024, -0.176, 19:18:24.781, 1589044704781
26, 3437.68, 0.00, 0.00, 0.00, 0.000, -0.480, -0.176, 19:18:24.781, 1589044704781
27, 3106.17, 0.00, 0.00, 0.00, 0.000, -0.480, -0.176, 19:18:24.797, 1589044704797
28, 3194.76, 0.00, 0.00, 0.00, 0.000, -0.480, -0.176, 19:18:24.797, 1589044704797
29, 3417.61, 0.00, 0.00, 0.00, 0.000, -0.480, -0.176, 19:18:24.798, 1589044704798
30, 3189.01, 0.00, 0.00, 0.00, 0.000, -0.480, -0.176, 19:18:24.798, 1589044704798
31, 2851.29, 0.00, 0.00, 0.00, 0.000, -0.480, -0.176, 19:18:24.811, 1589044704811
32, 2961.28, 0.00, 0.00, 0.00, 0.000, -0.480, -0.176, 19:18:24.811, 1589044704811
33, 3201.83, 0.00, 0.00, 0.00, 0.000, -0.480, -0.176, 19:18:24.827, 1589044704827
34, 2959.64, 0.00, 0.00, 0.00, 0.000, -0.480, -0.176, 19:18:24.827, 1589044704827
35, 2640.99, 0.00, 0.00, 0.00, 0.000, -0.480, -0.176, 19:18:24.827, 1589044704827
36, 2751.00, 0.00, 0.00, 0.00, 0.000, -0.480, -0.176, 19:18:24.827, 1589044704827
37, 2992.05, 0.00, 0.00, 0.00, 0.000, -0.480, -0.176, 19:18:24.841, 1589044704841
38, 2763.37, 0.00, 0.00, 0.00, 0.000, -0.480, -0.176, 19:18:24.841, 1589044704841
39, 2429.29, 0.00, 0.00, 0.00, 0.000, -0.480, -0.176, 19:18:24.857, 1589044704857
40, 2549.23, 0.00, 0.00, 0.00, 0.000, -0.480, -0.176, 19:18:24.857, 1589044704857
41, 2780.86, 0.00, 0.00, 0.00, 0.000, -0.480, -0.176, 19:18:24.858, 1589044704858
42, 2564.44, 0.00, 0.00, 0.00, 0.000, -0.480, -0.176, 19:18:24.858, 1589044704858
43, 2249.91, 0.00, 0.00, 0.00, 0.000, -0.480, -0.176, 19:18:24.871, 1589044704871
44, 2364.14, 0.00, 0.00, 0.00, 0.000, -0.480, -0.176, 19:18:24.871, 1589044704871
45, 2604.87, 0.00, 0.00, 0.00, 0.000, -0.480, -0.176, 19:18:24.887, 1589044704887
46, 2386.58, 0.00, 0.00, 0.00, 0.016, -0.720, -0.272, 19:18:24.887, 1589044704887
47, 2079.20, 0.00, 0.00, 0.00, 0.016, -0.720, -0.272, 19:18:24.902, 1589044704902
48, 2169.34, 0.00, 0.00, 0.00, 0.016, -0.720, -0.272, 19:18:24.902, 1589044704902
49, 2416.15, 0.00, 0.00, 0.00, 0.016, -0.720, -0.272, 19:18:24.902, 1589044704902
50, 2215.79, 0.00, 0.00, 0.00, 0.016, -0.720, -0.272, 19:18:24.902, 1589044704902
51, 1880.42, 0.00, 0.00, 0.00, 0.016, -0.720, -0.272, 19:18:24.917, 1589044704917
52, 1989.06, 0.00, 0.00, 0.00, 0.016, -0.720, -0.272, 19:18:24.917, 1589044704917
53, 2232.76, 0.00, 0.00, 0.00, 0.016, -0.720, -0.272, 19:18:24.918, 1589044704918
54, 2021.35, 0.00, 0.00, 0.00, 0.016, -0.720, -0.272, 19:18:24.918, 1589044704918
55, 1688.67, 0.00, 0.00, 0.00, 0.016, -0.720, -0.272, 19:18:24.931, 1589044704931
56, 1811.69, 0.00, 0.00, 0.00, 0.016, -0.720, -0.272, 19:18:24.931, 1589044704931
57, 2071.01, 0.00, 0.00, 0.00, 0.016, -0.720, -0.272, 19:18:24.947, 1589044704947
58, 1841.48, 0.00, 0.00, 0.00, 0.016, -0.720, -0.272, 19:18:24.947, 1589044704947
59, 1540.89, 0.00, 0.00, 0.00, 0.016, -0.720, -0.272, 19:18:24.948, 1589044704948
60, 1692.38, 0.00, 0.00, 0.00, 0.016, -0.720, -0.272, 19:18:24.948, 1589044704948
61, 1939.12, 0.00, 0.00, 0.00, 0.016, -0.720, -0.272, 19:18:24.977, 1589044704977
62, 1730.86, 0.00, 0.00, 0.00, 0.016, -0.720, -0.272, 19:18:24.977, 1589044704977
63, 1428.31, 0.00, 0.00, 0.00, 0.016, -0.720, -0.272, 19:18:24.978, 1589044704978
64, 1562.78, 0.00, 0.00, 0.00, 0.016, -0.720, -0.272, 19:18:24.978, 1589044704978
65, 1825.34, 0.00, 0.00, 0.00, 0.016, -0.720, -0.272, 19:18:24.979, 1589044704979
66, 1624.40, 0.00, 0.00, 0.00, 0.016, -0.848, -0.320, 19:18:24.979, 1589044704979
67, 1325.44, 0.00, 0.00, 0.00, 0.016, -0.848, -0.320, 19:18:24.991, 1589044704991
68, 1439.70, 0.00, 0.00, 0.00, 0.016, -0.848, -0.320, 19:18:24.991, 1589044704991
69, 1703.77, 0.00, 0.00, 0.00, 0.016, -0.848, -0.320, 19:18:25.007, 1589044705007
70, 1516.41, 0.00, 0.00, 0.00, 0.016, -0.848, -0.320, 19:18:25.007, 1589044705007
71, 1202.88, 0.00, 0.00, 0.00, 0.016, -0.848, -0.320, 19:18:25.007, 1589044705007
72, 1328.53, 0.00, 0.00, 0.00, 0.016, -0.848, -0.320, 19:18:25.007, 1589044705007
73, 1600.41, 0.00, 0.00, 0.00, 0.016, -0.848, -0.320, 19:18:25.021, 1589044705021
74, 1404.12, 0.00, 0.00, 0.00, 0.016, -0.848, -0.320, 19:18:25.021, 1589044705021
75, 1094.69, 0.00, 0.00, 0.00, 0.016, -0.848, -0.320, 19:18:25.037, 1589044705037
76, 1223.56, 0.00, 0.00, 0.00, 0.016, -0.848, -0.320, 19:18:25.037, 1589044705037
77, 1501.89, 0.00, 0.00, 0.00, 0.016, -0.848, -0.320, 19:18:25.037, 1589044705037
78, 1299.14, 0.00, 0.00, 0.00, 0.016, -0.848, -0.320, 19:18:25.037, 1589044705037
79, 988.58, 0.00, 0.00, 0.00, 0.016, -0.848, -0.320, 19:18:25.051, 1589044705051
80, 1150.03, 0.00, 0.00, 0.00, 0.016, -0.848, -0.320, 19:18:25.051, 1589044705051
81, 1393.94, 0.00, 0.00, 0.00, 0.016, -0.848, -0.320, 19:18:25.083, 1589044705083
82, 1197.90, 0.00, 0.00, 0.00, 0.016, -0.848, -0.320, 19:18:25.083, 1589044705083
83, 906.29, 0.00, 0.00, 0.00, 0.016, -0.848, -0.320, 19:18:25.083, 1589044705083
84, 1043.03, 0.00, 0.00, 0.00, 0.016, -0.848, -0.320, 19:18:25.083, 1589044705083
85, 1306.03, 0.00, 0.00, 0.00, 0.016, -0.848, -0.320, 19:18:25.085, 1589044705085
86, 1109.06, 0.00, 0.00, 0.00, 0.000, -0.928, -0.368, 19:18:25.085, 1589044705085
87, 824.45, 0.00, 0.00, 0.00, 0.000, -0.928, -0.368, 19:18:25.097, 1589044705097
88, 944.76, 0.00, 0.00, 0.00, 0.000, -0.928, -0.368, 19:18:25.097, 1589044705097
89, 1228.64, 0.00, 0.00, 0.00, 0.000, -0.928, -0.368, 19:18:25.097, 1589044705097
90, 1029.23, 0.00, 0.00, 0.00, 0.000, -0.928, -0.368, 19:18:25.097, 1589044705097
91, 719.56, 0.00, 0.00, 0.00, 0.000, -0.928, -0.368, 19:18:25.112, 1589044705112
92, 861.46, 0.00, 0.00, 0.00, 0.000, -0.928, -0.368, 19:18:25.112, 1589044705112
93, 1145.48, 0.00, 0.00, 0.00, 0.000, -0.928, -0.368, 19:18:25.127, 1589044705127
94, 948.12, 0.00, 0.00, 0.00, 0.000, -0.928, -0.368, 19:18:25.127, 1589044705127
95, 648.38, 0.00, 0.00, 0.00, 0.000, -0.928, -0.368, 19:18:25.127, 1589044705127
96, 800.24, 0.00, 0.00, 0.00, 0.000, -0.928, -0.368, 19:18:25.127, 1589044705127
97, 1063.77, 0.00, 0.00, 0.00, 0.000, -0.928, -0.368, 19:18:25.142, 1589044705142
98, 868.50, 0.00, 0.00, 0.00, 0.000, -0.928, -0.368, 19:18:25.142, 1589044705142
99, 592.01, 0.00, 0.00, 0.00, 0.000, -0.928, -0.368, 19:18:25.157, 1589044705157
100, 706.72, 0.00, 0.00, 0.00, 0.000, -0.928, -0.368, 19:18:25.157, 1589044705157
101, 993.47, 0.00, 0.00, 0.00, 0.000, -0.928, -0.368, 19:18:25.158, 1589044705158
102, 811.26, 0.00, 0.00, 0.00, 0.000, -0.928, -0.368, 19:18:25.158, 1589044705158
103, 503.99, 0.00, 0.00, 0.00, 0.000, -0.928, -0.368, 19:18:25.188, 1589044705188
104, 653.48, 0.00, 0.00, 0.00, 0.000, -0.928, -0.368, 19:18:25.188, 1589044705188
105, 931.62, 0.00, 0.00, 0.00, 0.000, -0.928, -0.368, 19:18:25.188, 1589044705188
106, 741.13, 0.00, 0.00, 0.00, 0.000, -0.944, -0.400, 19:18:25.188, 1589044705188
107, 449.29, 0.00, 0.00, 0.00, 0.000, -0.944, -0.400, 19:18:25.189, 1589044705189
108, 581.91, 0.00, 0.00, 0.00, 0.000, -0.944, -0.400, 19:18:25.189, 1589044705189
109, 882.50, 0.00, 0.00, 0.00, 0.000, -0.944, -0.400, 19:18:25.201, 1589044705201
110, 673.17, 0.00, 0.00, 0.00, 0.000, -0.944, -0.400, 19:18:25.201, 1589044705201
111, 375.24, 0.00, 0.00, 0.00, 0.000, -0.944, -0.400, 19:18:25.233, 1589044705233
112, 530.56, 0.00, 0.00, 0.00, 0.000, -0.944, -0.400, 19:18:25.233, 1589044705233
113, 808.10, 0.00, 0.00, 0.00, 0.000, -0.944, -0.400, 19:18:25.233, 1589044705233
114, 619.77, 0.00, 0.00, 0.00, 0.000, -0.944, -0.400, 19:18:25.233, 1589044705233
115, 325.00, 0.00, 0.00, 0.00, 0.000, -0.944, -0.400, 19:18:25.234, 1589044705234
116, 483.37, 0.00, 0.00, 0.00, 0.000, -0.944, -0.400, 19:18:25.234, 1589044705234
117, 749.56, 0.00, 0.00, 0.00, 0.000, -0.944, -0.400, 19:18:25.247, 1589044705247
118, 556.87, 0.00, 0.00, 0.00, 0.000, -0.944, -0.400, 19:18:25.247, 1589044705247
119, 296.08, 0.00, 0.00, 0.00, 0.000, -0.944, -0.400, 19:18:25.247, 1589044705247
120, 418.37, 0.00, 0.00, 0.00, 0.000, -0.944, -0.400, 19:18:25.247, 1589044705247
121, 712.68, 0.00, 0.00, 0.00, 0.000, -0.944, -0.400, 19:18:25.261, 1589044705261
122, 526.44, 0.00, 0.00, 0.00, 0.000, -0.944, -0.400, 19:18:25.261, 1589044705261
123, 223.38, 0.00, 0.00, 0.00, 0.000, -0.944, -0.400, 19:18:25.277, 1589044705277
124, 376.19, 0.00, 0.00, 0.00, 0.000, -0.944, -0.400, 19:18:25.277, 1589044705277
125, 653.80, 0.00, 0.00, 0.00, 0.000, -0.944, -0.400, 19:18:25.278, 1589044705278
126, 473.93, 0.00, 0.00, 0.00, 0.016, -0.944, -0.400, 19:18:25.278, 1589044705278
127, 193.43, 0.00, 0.00, 0.00, 0.016, -0.944, -0.400, 19:18:25.292, 1589044705292
128, 329.60, 0.00, 0.00, 0.00, 0.016, -0.944, -0.400, 19:18:25.292, 1589044705292
129, 608.34, 0.00, 0.00, 0.00, 0.016, -0.944, -0.400, 19:18:25.307, 1589044705307
130, 427.31, 0.00, 0.00, 0.00, 0.016, -0.944, -0.400, 19:18:25.307, 1589044705307
131, 145.13, 0.00, 0.00, 0.00, 0.016, -0.944, -0.400, 19:18:25.308, 1589044705308
132, 291.03, 0.00, 0.00, 0.00, 0.016, -0.944, -0.400, 19:18:25.308, 1589044705308
133, 572.98, 0.00, 0.00, 0.00, 0.016, -0.944, -0.400, 19:18:25.321, 1589044705321
134, 411.57, 0.00, 0.00, 0.00, 0.016, -0.944, -0.400, 19:18:25.321, 1589044705321
135, 98.55, 0.00, 0.00, 0.00, 0.016, -0.944, -0.400, 19:18:25.337, 1589044705337
136, 270.37, 0.00, 0.00, 0.00, 0.016, -0.944, -0.400, 19:18:25.337, 1589044705337
137, 543.43, 0.00, 0.00, 0.00, 0.016, -0.944, -0.400, 19:18:25.337, 1589044705337
138, 348.71, 0.00, 0.00, 0.00, 0.016, -0.944, -0.400, 19:18:25.337, 1589044705337
139, 82.90, 0.00, 0.00, 0.00, 0.016, -0.944, -0.400, 19:18:25.351, 1589044705351
140, 218.78, 0.00, 0.00, 0.00, 0.016, -0.944, -0.400, 19:18:25.351, 1589044705351
141, 499.34, 0.00, 0.00, 0.00, 0.016, -0.944, -0.400, 19:18:25.367, 1589044705367
142, 329.68, 0.00, 0.00, 0.00, 0.016, -0.944, -0.400, 19:18:25.367, 1589044705367
143, 43.20, 0.00, 0.00, 0.00, 0.016, -0.944, -0.400, 19:18:25.367, 1589044705367
144, 180.74, 0.00, 0.00, 0.00, 0.016, -0.944, -0.400, 19:18:25.367, 1589044705367
145, 469.28, 0.00, 0.00, 0.00, 0.016, -0.944, -0.400, 19:18:25.381, 1589044705381
146, 307.76, 0.00, 0.00, 0.00, 0.032, -0.960, -0.400, 19:18:25.381, 1589044705381
147, 9.23, 0.00, 0.00, 0.00, 0.032, -0.960, -0.400, 19:18:25.397, 1589044705397
148, 150.04, 0.00, 0.00, 0.00, 0.032, -0.960, -0.400, 19:18:25.397, 1589044705397
149, 443.82, 0.00, 0.00, 0.00, 0.032, -0.960, -0.400, 19:18:25.398, 1589044705398
150, 272.87, 0.00, 0.00, 0.00, 0.032, -0.960, -0.400, 19:18:25.398, 1589044705398
151, -15.16, 0.00, 0.00, 0.00, 0.032, -0.960, -0.400, 19:18:25.411, 1589044705411
152, 132.48, 0.00, 0.00, 0.00, 0.032, -0.960, -0.400, 19:18:25.411, 1589044705411
153, 413.29, 0.00, 0.00, 0.00, 0.032, -0.960, -0.400, 19:18:25.427, 1589044705427
154, 252.13, 0.00, 0.00, 0.00, 0.032, -0.960, -0.400, 19:18:25.427, 1589044705427
155, -45.11, 0.00, 0.00, 0.00, 0.032, -0.960, -0.400, 19:18:25.427, 1589044705427
156, 102.62, 0.00, 0.00, 0.00, 0.032, -0.960, -0.400, 19:18:25.427, 1589044705427
157, 402.89, 0.00, 0.00, 0.00, 0.032, -0.960, -0.400, 19:18:25.441, 1589044705441
158, 227.29, 0.00, 0.00, 0.00, 0.032, -0.960, -0.400, 19:18:25.441, 1589044705441
159, -72.62, 0.00, 0.00, 0.00, 0.032, -0.960, -0.400, 19:18:25.457, 1589044705457
160, 79.28, 0.00, 0.00, 0.00, 0.032, -0.960, -0.400, 19:18:25.457, 1589044705457
161, 382.88, 0.00, 0.00, 0.00, 0.032, -0.960, -0.400, 19:18:25.458, 1589044705458
162, 191.39, 0.00, 0.00, 0.00, 0.032, -0.960, -0.400, 19:18:25.458, 1589044705458
163, -94.95, 0.00, 0.00, 0.00, 0.032, -0.960, -0.400, 19:18:25.472, 1589044705472
164, 70.79, 0.00, 0.00, 0.00, 0.032, -0.960, -0.400, 19:18:25.472, 1589044705472
165, 349.71, 0.00, 0.00, 0.00, 0.032, -0.960, -0.400, 19:18:25.487, 1589044705487
166, 181.09, 0.00, 0.00, 0.00, 0.032, -0.960, -0.416, 19:18:25.487, 1589044705487
167, -107.03, 0.00, 0.00, 0.00, 0.032, -0.960, -0.416, 19:18:25.487, 1589044705487
168, 54.06, 0.00, 0.00, 0.00, 0.032, -0.960, -0.416, 19:18:25.487, 1589044705487
169, 324.81, 0.00, 0.00, 0.00, 0.032, -0.960, -0.416, 19:18:25.501, 1589044705501
170, 166.72, 0.00, 0.00, 0.00, 0.032, -0.960, -0.416, 19:18:25.501, 1589044705501
171, -101.11, 0.00, 0.00, 0.00, 0.032, -0.960, -0.416, 19:18:25.517, 1589044705517
172, 30.26, 0.00, 0.00, 0.00, 0.032, -0.960, -0.416, 19:18:25.517, 1589044705517
173, 316.74, 0.00, 0.00, 0.00, 0.032, -0.960, -0.416, 19:18:25.518, 1589044705518
174, 149.21, 0.00, 0.00, 0.00, 0.032, -0.960, -0.416, 19:18:25.518, 1589044705518
175, -150.39, 0.00, 0.00, 0.00, 0.032, -0.960, -0.416, 19:18:25.531, 1589044705531
176, 4.22, 0.00, 0.00, 0.00, 0.032, -0.960, -0.416, 19:18:25.531, 1589044705531
177, 299.41, 0.00, 0.00, 0.00, 0.032, -0.960, -0.416, 19:18:25.563, 1589044705563
178, 124.38, 0.00, 0.00, 0.00, 0.032, -0.960, -0.416, 19:18:25.563, 1589044705563
179, -167.32, 0.00, 0.00, 0.00, 0.032, -0.960, -0.416, 19:18:25.563, 1589044705563
180, -20.86, 0.00, 0.00, 0.00, 0.032, -0.960, -0.416, 19:18:25.563, 1589044705563
181, 289.49, 0.00, 0.00, 0.00, 0.032, -0.960, -0.416, 19:18:25.564, 1589044705564
182, 100.50, 0.00, 0.00, 0.00, 0.032, -0.960, -0.416, 19:18:25.564, 1589044705564
183, -191.52, 0.00, 0.00, 0.00, 0.032, -0.960, -0.416, 19:18:25.577, 1589044705577
184, -31.58, 0.00, 0.00, 0.00, 0.032, -0.960, -0.416, 19:18:25.577, 1589044705577
185, 259.37, 0.00, 0.00, 0.00, 0.032, -0.960, -0.416, 19:18:25.578, 1589044705578
186, 84.23, 0.00, 0.00, 0.00, 0.032, -0.960, -0.400, 19:18:25.578, 1589044705578
187, -194.03, 0.00, 0.00, 0.00, 0.032, -0.960, -0.400, 19:18:25.591, 1589044705591
188, -46.85, 0.00, 0.00, 0.00, 0.032, -0.960, -0.400, 19:18:25.591, 1589044705591
189, 241.12, 0.00, 0.00, 0.00, 0.032, -0.960, -0.400, 19:18:25.607, 1589044705607
190, 75.42, 0.00, 0.00, 0.00, 0.032, -0.960, -0.400, 19:18:25.607, 1589044705607
191, -212.61, 0.00, 0.00, 0.00, 0.032, -0.960, -0.400, 19:18:25.607, 1589044705607
192, -64.51, 0.00, 0.00, 0.00, 0.032, -0.960, -0.400, 19:18:25.607, 1589044705607
193, 227.44, 0.00, 0.00, 0.00, 0.032, -0.960, -0.400, 19:18:25.638, 1589044705638
194, 65.15, 0.00, 0.00, 0.00, 0.032, -0.960, -0.400, 19:18:25.638, 1589044705638
195, -229.61, 0.00, 0.00, 0.00, 0.032, -0.960, -0.400, 19:18:25.640, 1589044705640
196, -66.25, 0.00, 0.00, 0.00, 0.032, -0.960, -0.400, 19:18:25.640, 1589044705640
197, 218.19, 0.00, 0.00, 0.00, 0.032, -0.960, -0.400, 19:18:25.640, 1589044705640
198, 40.98, 0.00, 0.00, 0.00, 0.032, -0.960, -0.400, 19:18:25.640, 1589044705640
199, -228.72, 0.00, 0.00, 0.00, 0.032, -0.960, -0.400, 19:18:25.652, 1589044705652
200, -85.49, 0.00, 0.00, 0.00, 0.032, -0.960, -0.400, 19:18:25.652, 1589044705652
0, 201.19, 0.00, 0.00, 0.00, 0.032, -0.960, -0.400, 19:18:25.653, 1589044705653
1, 41.05, 0.00, 0.00, 0.00, 0.032, -0.960, -0.400, 19:18:25.666, 1589044705666
2, -252.59, 0.00, 0.00, 0.00, 0.032, -0.960, -0.400, 19:18:25.666, 1589044705666
3, -99.53, 0.00, 0.00, 0.00, 0.032, -0.960, -0.400, 19:18:25.682, 1589044705682
4, 201.07, 0.00, 0.00, 0.00, 0.032, -0.960, -0.400, 19:18:25.682, 1589044705682
5, 30.59, 0.00, 0.00, 0.00, 0.032, -0.960, -0.400, 19:18:25.683, 1589044705683
6, -264.52, 0.00, 0.00, 0.00, 0.032, -0.976, -0.416, 19:18:25.683, 1589044705683
7, -113.07, 0.00, 0.00, 0.00, 0.032, -0.976, -0.416, 19:18:25.696, 1589044705696
8, 202.55, 0.00, 0.00, 0.00, 0.032, -0.976, -0.416, 19:18:25.696, 1589044705696
9, 12.57, 0.00, 0.00, 0.00, 0.032, -0.976, -0.416, 19:18:25.712, 1589044705712
10, -277.63, 0.00, 0.00, 0.00, 0.032, -0.976, -0.416, 19:18:25.712, 1589044705712
11, -106.44, 0.00, 0.00, 0.00, 0.032, -0.976, -0.416, 19:18:25.713, 1589044705713
12, 173.39, 0.00, 0.00, 0.00, 0.032, -0.976, -0.416, 19:18:25.713, 1589044705713
13, -6.14, 0.00, 0.00, 0.00, 0.032, -0.976, -0.416, 19:18:25.726, 1589044705726
14, -281.17, 0.00, 0.00, 0.00, 0.032, -0.976, -0.416, 19:18:25.726, 1589044705726
15, -120.21, 0.00, 0.00, 0.00, 0.032, -0.976, -0.416, 19:18:25.742, 1589044705742
16, 160.13, 0.00, 0.00, 0.00, 0.032, -0.976, -0.416, 19:18:25.742, 1589044705742
17, -6.36, 0.00, 0.00, 0.00, 0.032, -0.976, -0.416, 19:18:25.743, 1589044705743
18, -278.18, 0.00, 0.00, 0.00, 0.032, -0.976, -0.416, 19:18:25.743, 1589044705743
19, -151.22, 0.00, 0.00, 0.00, 0.032, -0.976, -0.416, 19:18:25.757, 1589044705757
20, 145.88, 0.00, 0.00, 0.00, 0.032, -0.976, -0.416, 19:18:25.757, 1589044705757
21, -20.46, 0.00, 0.00, 0.00, 0.032, -0.976, -0.416, 19:18:25.772, 1589044705772
22, -306.85, 0.00, 0.00, 0.00, 0.032, -0.976, -0.416, 19:18:25.772, 1589044705772
23, -149.87, 0.00, 0.00, 0.00, 0.032, -0.976, -0.416, 19:18:25.773, 1589044705773
24, 145.61, 0.00, 0.00, 0.00, 0.032, -0.976, -0.416, 19:18:25.773, 1589044705773
25, -21.42, 0.00, 0.00, 0.00, 0.032, -0.976, -0.416, 19:18:25.787, 1589044705787
26, -311.24, 0.00, 0.00, 0.00, 0.016, -0.976, -0.400, 19:18:25.787, 1589044705787
27, -164.12, 0.00, 0.00, 0.00, 0.016, -0.976, -0.400, 19:18:25.802, 1589044705802
28, 143.72, 0.00, 0.00, 0.00, 0.016, -0.976, -0.400, 19:18:25.802, 1589044705802
29, -33.11, 0.00, 0.00, 0.00, 0.016, -0.976, -0.400, 19:18:25.803, 1589044705803
30, -324.62, 0.00, 0.00, 0.00, 0.016, -0.976, -0.400, 19:18:25.803, 1589044705803
31, -157.21, 0.00, 0.00, 0.00, 0.016, -0.976, -0.400, 19:18:25.816, 1589044705816
32, 135.97, 0.00, 0.00, 0.00, 0.016, -0.976, -0.400, 19:18:25.816, 1589044705816
33, -41.83, 0.00, 0.00, 0.00, 0.016, -0.976, -0.400, 19:18:25.832, 1589044705832
34, -325.65, 0.00, 0.00, 0.00, 0.016, -0.976, -0.400, 19:18:25.832, 1589044705832
35, -165.70, 0.00, 0.00, 0.00, 0.016, -0.976, -0.400, 19:18:25.833, 1589044705833
36, 119.35, 0.00, 0.00, 0.00, 0.016, -0.976, -0.400, 19:18:25.833, 1589044705833
37, -40.97, 0.00, 0.00, 0.00, 0.016, -0.976, -0.400, 19:18:25.846, 1589044705846
38, -330.88, 0.00, 0.00, 0.00, 0.016, -0.976, -0.400, 19:18:25.846, 1589044705846
39, -173.27, 0.00, 0.00, 0.00, 0.016, -0.976, -0.400, 19:18:25.862, 1589044705862
40, 133.04, 0.00, 0.00, 0.00, 0.016, -0.976, -0.400, 19:18:25.862, 1589044705862
41, -44.33, 0.00, 0.00, 0.00, 0.016, -0.976, -0.400, 19:18:25.862, 1589044705862
42, -313.24, 0.00, 0.00, 0.00, 0.016, -0.976, -0.400, 19:18:25.862, 1589044705862
43, -190.69, 0.00, 0.00, 0.00, 0.016, -0.976, -0.400, 19:18:25.876, 1589044705876
44, 112.86, 0.00, 0.00, 0.00, 0.016, -0.976, -0.400, 19:18:25.876, 1589044705876
45, -46.96, 0.00, 0.00, 0.00, 0.016, -0.976, -0.400, 19:18:25.892, 1589044705892
46, -343.72, 0.00, 0.00, 0.00, 0.016, -0.976, -0.400, 19:18:25.892, 1589044705892
47, -186.38, 0.00, 0.00, 0.00, 0.016, -0.976, -0.400, 19:18:25.893, 1589044705893
48, 107.42, 0.00, 0.00, 0.00, 0.016, -0.976, -0.400, 19:18:25.893, 1589044705893
49, -60.55, 0.00, 0.00, 0.00, 0.016, -0.976, -0.400, 19:18:25.907, 1589044705907
50, -332.40, 0.00, 0.00, 0.00, 0.016, -0.976, -0.400, 19:18:25.907, 1589044705907
51, -193.51, 0.00, 0.00, 0.00, 0.016, -0.976, -0.400, 19:18:25.922, 1589044705922
52, 103.96, 0.00, 0.00, 0.00, 0.016, -0.976, -0.400, 19:18:25.922, 1589044705922
53, -59.50, 0.00, 0.00, 0.00, 0.016, -0.976, -0.400, 19:18:25.922, 1589044705922
54, -355.75, 0.00, 0.00, 0.00, 0.016, -0.976, -0.400, 19:18:25.922, 1589044705922
55, -197.34, 0.00, 0.00, 0.00, 0.016, -0.976, -0.400, 19:18:25.936, 1589044705936
56, 106.80, 0.00, 0.00, 0.00, 0.016, -0.976, -0.400, 19:18:25.936, 1589044705936
57, -63.52, 0.00, 0.00, 0.00, 0.016, -0.976, -0.400, 19:18:25.952, 1589044705952
58, -361.92, 0.00, 0.00, 0.00, 0.016, -0.976, -0.400, 19:18:25.952, 1589044705952
59, -207.39, 0.00, 0.00, 0.00, 0.016, -0.976, -0.400, 19:18:25.967, 1589044705967
60, 108.29, 0.00, 0.00, 0.00, 0.016, -0.976, -0.400, 19:18:25.967, 1589044705967
61, -72.28, 0.00, 0.00, 0.00, 0.016, -0.976, -0.400, 19:18:25.968, 1589044705968
62, -356.73, 0.00, 0.00, 0.00, 0.016, -0.976, -0.400, 19:18:25.968, 1589044705968
63, -176.02, 0.00, 0.00, 0.00, 0.016, -0.976, -0.400, 19:18:25.983, 1589044705983
64, 98.94, 0.00, 0.00, 0.00, 0.016, -0.976, -0.400, 19:18:25.983, 1589044705983
65, -64.13, 0.00, 0.00, 0.00, 0.016, -0.976, -0.400, 19:18:25.983, 1589044705983
66, -351.30, 0.00, 0.00, 0.00, 0.032, -0.976, -0.384, 19:18:25.983, 1589044705983
67, -201.68, 0.00, 0.00, 0.00, 0.032, -0.976, -0.384, 19:18:25.996, 1589044705996
68, 102.62, 0.00, 0.00, 0.00, 0.032, -0.976, -0.384, 19:18:25.996, 1589044705996
69, -72.43, 0.00, 0.00, 0.00, 0.032, -0.976, -0.384, 19:18:26.012, 1589044706012
70, -349.48, 0.00, 0.00, 0.00, 0.032, -0.976, -0.384, 19:18:26.012, 1589044706012
71, -203.03, 0.00, 0.00, 0.00, 0.032, -0.976, -0.384, 19:18:26.012, 1589044706012
72, 81.56, 0.00, 0.00, 0.00, 0.032, -0.976, -0.384, 19:18:26.012, 1589044706012
73, -62.65, 0.00, 0.00, 0.00, 0.032, -0.976, -0.384, 19:18:26.026, 1589044706026
74, -362.78, 0.00, 0.00, 0.00, 0.032, -0.976, -0.384, 19:18:26.026, 1589044706026
75, -205.47, 0.00, 0.00, 0.00, 0.032, -0.976, -0.384, 19:18:26.042, 1589044706042
76, 100.47, 0.00, 0.00, 0.00, 0.032, -0.976, -0.384, 19:18:26.042, 1589044706042
77, -61.36, 0.00, 0.00, 0.00, 0.032, -0.976, -0.384, 19:18:26.042, 1589044706042
78, -362.29, 0.00, 0.00, 0.00, 0.032, -0.976, -0.384, 19:18:26.042, 1589044706042
79, -212.16, 0.00, 0.00, 0.00, 0.032, -0.976, -0.384, 19:18:26.056, 1589044706056
80, 109.42, 0.00, 0.00, 0.00, 0.032, -0.976, -0.384, 19:18:26.056, 1589044706056
81, -82.52, 0.00, 0.00, 0.00, 0.032, -0.976, -0.384, 19:18:26.072, 1589044706072
82, -373.43, 0.00, 0.00, 0.00, 0.032, -0.976, -0.384, 19:18:26.072, 1589044706072
83, -202.62, 0.00, 0.00, 0.00, 0.032, -0.976, -0.384, 19:18:26.073, 1589044706073
84, 85.56, 0.00, 0.00, 0.00, 0.032, -0.976, -0.384, 19:18:26.073, 1589044706073
85, -81.76, 0.00, 0.00, 0.00, 0.032, -0.976, -0.384, 19:18:26.086, 1589044706086
86, -354.27, 0.00, 0.00, 0.00, 0.032, -0.976, -0.400, 19:18:26.086, 1589044706086
87, -198.76, 0.00, 0.00, 0.00, 0.032, -0.976, -0.400, 19:18:26.102, 1589044706102
88, 77.78, 0.00, 0.00, 0.00, 0.032, -0.976, -0.400, 19:18:26.102, 1589044706102
89, -79.01, 0.00, 0.00, 0.00, 0.032, -0.976, -0.400, 19:18:26.117, 1589044706117
90, -373.21, 0.00, 0.00, 0.00, 0.032, -0.976, -0.400, 19:18:26.117, 1589044706117
91, -225.68, 0.00, 0.00, 0.00, 0.032, -0.976, -0.400, 19:18:26.117, 1589044706117
92, 82.63, 0.00, 0.00, 0.00, 0.032, -0.976, -0.400, 19:18:26.117, 1589044706117
93, -71.10, 0.00, 0.00, 0.00, 0.032, -0.976, -0.400, 19:18:26.132, 1589044706132
94, -377.74, 0.00, 0.00, 0.00, 0.032, -0.976, -0.400, 19:18:26.132, 1589044706132
95, -205.13, 0.00, 0.00, 0.00, 0.032, -0.976, -0.400, 19:18:26.132, 1589044706132
96, 77.14, 0.00, 0.00, 0.00, 0.032, -0.976, -0.400, 19:18:26.132, 1589044706132
97, -91.65, 0.00, 0.00, 0.00, 0.032, -0.976, -0.400, 19:18:26.147, 1589044706147
98, -364.27, 0.00, 0.00, 0.00, 0.032, -0.976, -0.400, 19:18:26.147, 1589044706147
99, -225.08, 0.00, 0.00, 0.00, 0.032, -0.976, -0.400, 19:18:26.162, 1589044706162
100, 76.21, 0.00, 0.00, 0.00, 0.032, -0.976, -0.400, 19:18:26.162, 1589044706162
101, -75.89, 0.00, 0.00, 0.00, 0.032, -0.976, -0.400, 19:18:26.162, 1589044706162
102, -362.01, 0.00, 0.00, 0.00, 0.032, -0.976, -0.400, 19:18:26.162, 1589044706162
103, -225.44, 0.00, 0.00, 0.00, 0.032, -0.976, -0.400, 19:18:26.176, 1589044706176
104, 79.41, 0.00, 0.00, 0.00, 0.032, -0.976, -0.400, 19:18:26.176, 1589044706176
105, -78.55, 0.00, 0.00, 0.00, 0.032, -0.976, -0.400, 19:18:26.192, 1589044706192
106, -373.17, 0.00, 0.00, 0.00, 0.032, -0.976, -0.400, 19:18:26.192, 1589044706192
107, -222.29, 0.00, 0.00, 0.00, 0.032, -0.976, -0.400, 19:18:26.193, 1589044706193
108, 62.50, 0.00, 0.00, 0.00, 0.032, -0.976, -0.400, 19:18:26.193, 1589044706193
109, -99.12, 0.00, 0.00, 0.00, 0.032, -0.976, -0.400, 19:18:26.206, 1589044706206
110, -367.59, 0.00, 0.00, 0.00, 0.032, -0.976, -0.400, 19:18:26.206, 1589044706206
111, -230.66, 0.00, 0.00, 0.00, 0.032, -0.976, -0.400, 19:18:26.222, 1589044706222
112, 61.35, 0.00, 0.00, 0.00, 0.032, -0.976, -0.400, 19:18:26.222, 1589044706222
113, -84.38, 0.00, 0.00, 0.00, 0.032, -0.976, -0.400, 19:18:26.223, 1589044706223
114, -395.21, 0.00, 0.00, 0.00, 0.032, -0.976, -0.400, 19:18:26.223, 1589044706223
115, -234.77, 0.00, 0.00, 0.00, 0.032, -0.976, -0.400, 19:18:26.236, 1589044706236
116, 74.68, 0.00, 0.00, 0.00, 0.032, -0.976, -0.400, 19:18:26.236, 1589044706236
117, -96.26, 0.00, 0.00, 0.00, 0.032, -0.976, -0.400, 19:18:26.253, 1589044706253
118, -394.33, 0.00, 0.00, 0.00, 0.032, -0.976, -0.400, 19:18:26.253, 1589044706253
119, -230.78, 0.00, 0.00, 0.00, 0.032, -0.976, -0.400, 19:18:26.253, 1589044706253
120, 65.22, 0.00, 0.00, 0.00, 0.032, -0.976, -0.400, 19:18:26.253, 1589044706253
121, -108.22, 0.00, 0.00, 0.00, 0.032, -0.976, -0.400, 19:18:26.267, 1589044706267
122, -377.11, 0.00, 0.00, 0.00, 0.032, -0.976, -0.400, 19:18:26.267, 1589044706267
123, -240.93, 0.00, 0.00, 0.00, 0.032, -0.976, -0.400, 19:18:26.282, 1589044706282
124, 54.31, 0.00, 0.00, 0.00, 0.032, -0.976, -0.400, 19:18:26.282, 1589044706282
125, -98.78, 0.00, 0.00, 0.00, 0.032, -0.976, -0.400, 19:18:26.282, 1589044706282
126, -381.26, 0.00, 0.00, 0.00, 0.032, -0.976, -0.400, 19:18:26.282, 1589044706282
127, -238.59, 0.00, 0.00, 0.00, 0.032, -0.976, -0.400, 19:18:26.296, 1589044706296
128, 67.33, 0.00, 0.00, 0.00, 0.032, -0.976, -0.400, 19:18:26.296, 1589044706296
129, -89.55, 0.00, 0.00, 0.00, 0.032, -0.976, -0.400, 19:18:26.312, 1589044706312
130, -396.21, 0.00, 0.00, 0.00, 0.032, -0.976, -0.400, 19:18:26.312, 1589044706312
131, -230.98, 0.00, 0.00, 0.00, 0.032, -0.976, -0.400, 19:18:26.312, 1589044706312
132, 54.35, 0.00, 0.00, 0.00, 0.032, -0.976, -0.400, 19:18:26.312, 1589044706312
133, -106.16, 0.00, 0.00, 0.00, 0.032, -0.976, -0.400, 19:18:26.326, 1589044706326
134, -380.21, 0.00, 0.00, 0.00, 0.032, -0.976, -0.400, 19:18:26.326, 1589044706326
135, -239.71, 0.00, 0.00, 0.00, 0.032, -0.976, -0.400, 19:18:26.342, 1589044706342
136, 50.60, 0.00, 0.00, 0.00, 0.032, -0.976, -0.400, 19:18:26.342, 1589044706342
137, -93.44, 0.00, 0.00, 0.00, 0.032, -0.976, -0.400, 19:18:26.343, 1589044706343
138, -406.71, 0.00, 0.00, 0.00, 0.032, -0.976, -0.400, 19:18:26.343, 1589044706343
139, -255.74, 0.00, 0.00, 0.00, 0.032, -0.976, -0.400, 19:18:26.356, 1589044706356
140, 57.53, 0.00, 0.00, 0.00, 0.032, -0.976, -0.400, 19:18:26.356, 1589044706356
141, -111.79, 0.00, 0.00, 0.00, 0.032, -0.976, -0.400, 19:18:26.372, 1589044706372
142, -408.24, 0.00, 0.00, 0.00, 0.032, -0.976, -0.400, 19:18:26.372, 1589044706372
143, -247.75, 0.00, 0.00, 0.00, 0.032, -0.976, -0.400, 19:18:26.373, 1589044706373
144, 57.30, 0.00, 0.00, 0.00, 0.032, -0.976, -0.400, 19:18:26.373, 1589044706373
145, -119.67, 0.00, 0.00, 0.00, 0.032, -0.976, -0.400, 19:18:26.386, 1589044706386
146, -409.43, 0.00, 0.00, 0.00, 0.032, -0.976, -0.400, 19:18:26.386, 1589044706386
147, -251.83, 0.00, 0.00, 0.00, 0.032, -0.976, -0.400, 19:18:26.402, 1589044706402
148, 34.80, 0.00, 0.00, 0.00, 0.032, -0.976, -0.400, 19:18:26.402, 1589044706402
149, -121.16, 0.00, 0.00, 0.00, 0.032, -0.976, -0.400, 19:18:26.402, 1589044706402
150, -410.23, 0.00, 0.00, 0.00, 0.032, -0.976, -0.400, 19:18:26.402, 1589044706402
151, -251.56, 0.00, 0.00, 0.00, 0.032, -0.976, -0.400, 19:18:26.416, 1589044706416
152, 42.09, 0.00, 0.00, 0.00, 0.032, -0.976, -0.400, 19:18:26.416, 1589044706416
153, -113.63, 0.00, 0.00, 0.00, 0.032, -0.976, -0.400, 19:18:26.448, 1589044706448
154, -416.57, 0.00, 0.00, 0.00, 0.032, -0.976, -0.400, 19:18:26.448, 1589044706448
155, -261.52, 0.00, 0.00, 0.00, 0.032, -0.976, -0.400, 19:18:26.448, 1589044706448
156, 45.93, 0.00, 0.00, 0.00, 0.032, -0.976, -0.400, 19:18:26.448, 1589044706448
157, -120.26, 0.00, 0.00, 0.00, 0.032, -0.976, -0.400, 19:18:26.449, 1589044706449
158, -407.93, 0.00, 0.00, 0.00, 0.032, -0.976, -0.400, 19:18:26.449, 1589044706449
159, -257.55, 0.00, 0.00, 0.00, 0.032, -0.976, -0.400, 19:18:26.462, 1589044706462
160, 53.82, 0.00, 0.00, 0.00, 0.032, -0.976, -0.400, 19:18:26.462, 1589044706462
161, -120.97, 0.00, 0.00, 0.00, 0.032, -0.976, -0.400, 19:18:26.464, 1589044706464
162, -419.75, 0.00, 0.00, 0.00, 0.032, -0.976, -0.400, 19:18:26.464, 1589044706464
163, -260.62, 0.00, 0.00, 0.00, 0.032, -0.976, -0.400, 19:18:26.476, 1589044706476
164, 41.84, 0.00, 0.00, 0.00, 0.032, -0.976, -0.400, 19:18:26.476, 1589044706476
165, -122.70, 0.00, 0.00, 0.00, 0.032, -0.976, -0.400, 19:18:26.492, 1589044706492
166, -411.89, 0.00, 0.00, 0.00, 0.032, -0.992, -0.384, 19:18:26.492, 1589044706492
167, -250.93, 0.00, 0.00, 0.00, 0.032, -0.992, -0.384, 19:18:26.493, 1589044706493
168, 28.64, 0.00, 0.00, 0.00, 0.032, -0.992, -0.384, 19:18:26.493, 1589044706493
169, -130.39, 0.00, 0.00, 0.00, 0.032, -0.992, -0.384, 19:18:26.507, 1589044706507
170, -391.35, 0.00, 0.00, 0.00, 0.032, -0.992, -0.384, 19:18:26.507, 1589044706507
171, -258.81, 0.00, 0.00, 0.00, 0.032, -0.992, -0.384, 19:18:26.522, 1589044706522
172, 35.74, 0.00, 0.00, 0.00, 0.032, -0.992, -0.384, 19:18:26.522, 1589044706522
173, -125.39, 0.00, 0.00, 0.00, 0.032, -0.992, -0.384, 19:18:26.522, 1589044706522
174, -417.24, 0.00, 0.00, 0.00, 0.032, -0.992, -0.384, 19:18:26.522, 1589044706522
175, -261.00, 0.00, 0.00, 0.00, 0.032, -0.992, -0.384, 19:18:26.552, 1589044706552
176, 34.87, 0.00, 0.00, 0.00, 0.032, -0.992, -0.384, 19:18:26.552, 1589044706552
177, -116.80, 0.00, 0.00, 0.00, 0.032, -0.992, -0.384, 19:18:26.554, 1589044706554
178, -429.11, 0.00, 0.00, 0.00, 0.032, -0.992, -0.384, 19:18:26.554, 1589044706554
179, -276.91, 0.00, 0.00, 0.00, 0.032, -0.992, -0.384, 19:18:26.554, 1589044706554
180, 34.54, 0.00, 0.00, 0.00, 0.032, -0.992, -0.384, 19:18:26.554, 1589044706554
181, -123.78, 0.00, 0.00, 0.00, 0.032, -0.992, -0.384, 19:18:26.566, 1589044706566
182, -407.74, 0.00, 0.00, 0.00, 0.032, -0.992, -0.384, 19:18:26.566, 1589044706566
183, -271.12, 0.00, 0.00, 0.00, 0.032, -0.992, -0.384, 19:18:26.582, 1589044706582
184, 27.43, 0.00, 0.00, 0.00, 0.032, -0.992, -0.384, 19:18:26.582, 1589044706582
185, -115.07, 0.00, 0.00, 0.00, 0.032, -0.992, -0.384, 19:18:26.582, 1589044706582
186, -420.10, 0.00, 0.00, 0.00, 0.032, -0.976, -0.400, 19:18:26.582, 1589044706582
187, -277.59, 0.00, 0.00, 0.00, 0.032, -0.976, -0.400, 19:18:26.596, 1589044706596
188, 33.13, 0.00, 0.00, 0.00, 0.032, -0.976, -0.400, 19:18:26.596, 1589044706596
189, -120.83, 0.00, 0.00, 0.00, 0.032, -0.976, -0.400, 19:18:26.612, 1589044706612
190, -419.60, 0.00, 0.00, 0.00, 0.032, -0.976, -0.400, 19:18:26.612, 1589044706612
191, -260.68, 0.00, 0.00, 0.00, 0.032, -0.976, -0.400, 19:18:26.612, 1589044706612
192, 24.25, 0.00, 0.00, 0.00, 0.032, -0.976, -0.400, 19:18:26.612, 1589044706612
193, -132.41, 0.00, 0.00, 0.00, 0.032, -0.976, -0.400, 19:18:26.626, 1589044706626
194, -427.68, 0.00, 0.00, 0.00, 0.032, -0.976, -0.400, 19:18:26.626, 1589044706626
195, -276.24, 0.00, 0.00, 0.00, 0.032, -0.976, -0.400, 19:18:26.642, 1589044706642
196, 40.69, 0.00, 0.00, 0.00, 0.032, -0.976, -0.400, 19:18:26.642, 1589044706642
197, -137.65, 0.00, 0.00, 0.00, 0.032, -0.976, -0.400, 19:18:26.642, 1589044706642
198, -429.32, 0.00, 0.00, 0.00, 0.032, -0.976, -0.400, 19:18:26.642, 1589044706642
199, -272.62, 0.00, 0.00, 0.00, 0.032, -0.976, -0.400, 19:18:26.657, 1589044706657
200, 22.12, 0.00, 0.00, 0.00, 0.032, -0.976, -0.400, 19:18:26.657, 1589044706657
0, -133.39, 0.00, 0.00, 0.00, 0.032, -0.976, -0.400, 19:18:26.657, 1589044706657
1, -427.73, 0.00, 0.00, 0.00, 0.032, -0.976, -0.400, 19:18:26.671, 1589044706671
2, -265.76, 0.00, 0.00, 0.00, 0.032, -0.976, -0.400, 19:18:26.671, 1589044706671
3, 16.46, 0.00, 0.00, 0.00, 0.032, -0.976, -0.400, 19:18:26.687, 1589044706687
4, -143.89, 0.00, 0.00, 0.00, 0.032, -0.976, -0.400, 19:18:26.687, 1589044706687
5, -413.15, 0.00, 0.00, 0.00, 0.032, -0.976, -0.400, 19:18:26.687, 1589044706687
6, -284.38, 0.00, 0.00, 0.00, 0.032, -0.976, -0.384, 19:18:26.687, 1589044706687
7, 13.14, 0.00, 0.00, 0.00, 0.032, -0.976, -0.384, 19:18:26.701, 1589044706701
8, -125.04, 0.00, 0.00, 0.00, 0.032, -0.976, -0.384, 19:18:26.701, 1589044706701
9, -429.78, 0.00, 0.00, 0.00, 0.032, -0.976, -0.384, 19:18:26.717, 1589044706717
10, -295.10, 0.00, 0.00, 0.00, 0.032, -0.976, -0.384, 19:18:26.717, 1589044706717
11, 17.95, 0.00, 0.00, 0.00, 0.032, -0.976, -0.384, 19:18:26.718, 1589044706718
12, -135.19, 0.00, 0.00, 0.00, 0.032, -0.976, -0.384, 19:18:26.718, 1589044706718
13, -442.40, 0.00, 0.00, 0.00, 0.032, -0.976, -0.384, 19:18:26.731, 1589044706731
14, -292.25, 0.00, 0.00, 0.00, 0.032, -0.976, -0.384, 19:18:26.731, 1589044706731
15, 21.64, 0.00, 0.00, 0.00, 0.032, -0.976, -0.384, 19:18:26.748, 1589044706748
16, -139.82, 0.00, 0.00, 0.00, 0.032, -0.976, -0.384, 19:18:26.748, 1589044706748
17, -433.24, 0.00, 0.00, 0.00, 0.032, -0.976, -0.384, 19:18:26.750, 1589044706750
18, -283.98, 0.00, 0.00, 0.00, 0.032, -0.976, -0.384, 19:18:26.750, 1589044706750
19, -5.12, 0.00, 0.00, 0.00, 0.032, -0.976, -0.384, 19:18:26.761, 1589044706761
20, -139.94, 0.00, 0.00, 0.00, 0.032, -0.976, -0.384, 19:18:26.761, 1589044706761
21, -428.96, 0.00, 0.00, 0.00, 0.032, -0.976, -0.384, 19:18:26.777, 1589044706777
22, -280.67, 0.00, 0.00, 0.00, 0.032, -0.976, -0.384, 19:18:26.777, 1589044706777
23, 7.69, 0.00, 0.00, 0.00, 0.032, -0.976, -0.384, 19:18:26.778, 1589044706778
24, -152.75, 0.00, 0.00, 0.00, 0.032, -0.976, -0.384, 19:18:26.778, 1589044706778
25, -427.62, 0.00, 0.00, 0.00, 0.032, -0.976, -0.384, 19:18:26.792, 1589044706792
26, -285.71, 0.00, 0.00, 0.00, 0.032, -0.976, -0.384, 19:18:26.792, 1589044706792
27, 10.11, 0.00, 0.00, 0.00, 0.032, -0.976, -0.384, 19:18:26.807, 1589044706807
28, -150.89, 0.00, 0.00, 0.00, 0.032, -0.976, -0.384, 19:18:26.807, 1589044706807
29, -430.57, 0.00, 0.00, 0.00, 0.032, -0.976, -0.384, 19:18:26.807, 1589044706807
30, -274.46, 0.00, 0.00, 0.00, 0.032, -0.976, -0.384, 19:18:26.807, 1589044706807
31, 9.35, 0.00, 0.00, 0.00, 0.032, -0.976, -0.384, 19:18:26.821, 1589044706821
32, -142.05, 0.00, 0.00, 0.00, 0.032, -0.976, -0.384, 19:18:26.821, 1589044706821
33, -421.23, 0.00, 0.00, 0.00, 0.032, -0.976, -0.384, 19:18:26.837, 1589044706837
34, -299.60, 0.00, 0.00, 0.00, 0.032, -0.976, -0.384, 19:18:26.837, 1589044706837
35, 16.58, 0.00, 0.00, 0.00, 0.032, -0.976, -0.384, 19:18:26.853, 1589044706853
36, -133.15, 0.00, 0.00, 0.00, 0.032, -0.976, -0.384, 19:18:26.853, 1589044706853
37, -431.83, 0.00, 0.00, 0.00, 0.032, -0.976, -0.384, 19:18:26.853, 1589044706853
38, -287.52, 0.00, 0.00, 0.00, 0.032, -0.976, -0.384, 19:18:26.853, 1589044706853
39, 1.92, 0.00, 0.00, 0.00, 0.032, -0.976, -0.384, 19:18:26.867, 1589044706867
40, -146.97, 0.00, 0.00, 0.00, 0.032, -0.976, -0.384, 19:18:26.867, 1589044706867
41, -428.83, 0.00, 0.00, 0.00, 0.032, -0.976, -0.384, 19:18:26.868, 1589044706868
42, -295.34, 0.00, 0.00, 0.00, 0.032, -0.976, -0.384, 19:18:26.868, 1589044706868
43, 10.78, 0.00, 0.00, 0.00, 0.032, -0.976, -0.384, 19:18:26.897, 1589044706897
44, -127.42, 0.00, 0.00, 0.00, 0.032, -0.976, -0.384, 19:18:26.897, 1589044706897
45, -434.73, 0.00, 0.00, 0.00, 0.032, -0.976, -0.384, 19:18:26.898, 1589044706898
46, -290.75, 0.00, 0.00, 0.00, 0.032, -0.976, -0.384, 19:18:26.898, 1589044706898
47, 29.45, 0.00, 0.00, 0.00, 0.032, -0.976, -0.384, 19:18:26.899, 1589044706899
48, -145.44, 0.00, 0.00, 0.00, 0.032, -0.976, -0.384, 19:18:26.899, 1589044706899
49, -439.33, 0.00, 0.00, 0.00, 0.032, -0.976, -0.384, 19:18:26.911, 1589044706911
50, -292.74, 0.00, 0.00, 0.00, 0.032, -0.976, -0.384, 19:18:26.911, 1589044706911
51, 15.00, 0.00, 0.00, 0.00, 0.032, -0.976, -0.384, 19:18:26.927, 1589044706927
52, -136.81, 0.00, 0.00, 0.00, 0.032, -0.976, -0.384, 19:18:26.927, 1589044706927
53, -425.42, 0.00, 0.00, 0.00, 0.032, -0.976, -0.384, 19:18:26.927, 1589044706927
54, -281.08, 0.00, 0.00, 0.00, 0.032, -0.976, -0.384, 19:18:26.927, 1589044706927
55, 7.00, 0.00, 0.00, 0.00, 0.032, -0.976, -0.384, 19:18:26.942, 1589044706942
56, -143.63, 0.00, 0.00, 0.00, 0.032, -0.976, -0.384, 19:18:26.942, 1589044706942
57, -426.53, 0.00, 0.00, 0.00, 0.032, -0.976, -0.384, 19:18:26.958, 1589044706958
58, -300.05, 0.00, 0.00, 0.00, 0.032, -0.976, -0.384, 19:18:26.958, 1589044706958
59, 14.75, 0.00, 0.00, 0.00, 0.032, -0.976, -0.384, 19:18:26.959, 1589044706959
60, -138.71, 0.00, 0.00, 0.00, 0.032, -0.976, -0.384, 19:18:26.959, 1589044706959
61, -437.83, 0.00, 0.00, 0.00, 0.032, -0.976, -0.384, 19:18:26.971, 1589044706971
62, -297.40, 0.00, 0.00, 0.00, 0.032, -0.976, -0.384, 19:18:26.971, 1589044706971
63, 13.51, 0.00, 0.00, 0.00, 0.032, -0.976, -0.384, 19:18:26.987, 1589044706987
64, -134.66, 0.00, 0.00, 0.00, 0.032, -0.976, -0.384, 19:18:26.987, 1589044706987
65, -397.49, 0.00, 0.00, 0.00, 0.032, -0.976, -0.384, 19:18:26.988, 1589044706988
66, -277.55, 0.00, 0.00, 0.00, 0.032, -0.976, -0.384, 19:18:26.988, 1589044706988
67, 4.90, 0.00, 0.00, 0.00, 0.032, -0.976, -0.384, 19:18:27.001, 1589044707001
68, -139.86, 0.00, 0.00, 0.00, 0.032, -0.976, -0.384, 19:18:27.001, 1589044707001
69, -415.06, 0.00, 0.00, 0.00, 0.032, -0.976, -0.384, 19:18:27.017, 1589044707017
70, -284.67, 0.00, 0.00, 0.00, 0.032, -0.976, -0.384, 19:18:27.017, 1589044707017
71, 11.85, 0.00, 0.00, 0.00, 0.032, -0.976, -0.384, 19:18:27.018, 1589044707018
72, -140.08, 0.00, 0.00, 0.00, 0.032, -0.976, -0.384, 19:18:27.018, 1589044707018
73, -431.77, 0.00, 0.00, 0.00, 0.032, -0.976, -0.384, 19:18:27.031, 1589044707031
74, -299.15, 0.00, 0.00, 0.00, 0.032, -0.976, -0.384, 19:18:27.031, 1589044707031
75, 1.21, 0.00, 0.00, 0.00, 0.032, -0.976, -0.384, 19:18:27.047, 1589044707047
76, -150.61, 0.00, 0.00, 0.00, 0.032, -0.976, -0.384, 19:18:27.047, 1589044707047
77, -421.67, 0.00, 0.00, 0.00, 0.032, -0.976, -0.384, 19:18:27.047, 1589044707047
78, -298.20, 0.00, 0.00, 0.00, 0.032, -0.976, -0.384, 19:18:27.047, 1589044707047
79, 5.23, 0.00, 0.00, 0.00, 0.032, -0.976, -0.384, 19:18:27.061, 1589044707061
80, -135.37, 0.00, 0.00, 0.00, 0.032, -0.976, -0.384, 19:18:27.061, 1589044707061
81, -443.61, 0.00, 0.00, 0.00, 0.032, -0.976, -0.384, 19:18:27.077, 1589044707077
82, -308.56, 0.00, 0.00, 0.00, 0.032, -0.976, -0.384, 19:18:27.077, 1589044707077
83, 26.13, 0.00, 0.00, 0.00, 0.032, -0.976, -0.384, 19:18:27.077, 1589044707077
84, -144.63, 0.00, 0.00, 0.00, 0.032, -0.976, -0.384, 19:18:27.077, 1589044707077
85, -452.34, 0.00, 0.00, 0.00, 0.032, -0.976, -0.384, 19:18:27.091, 1589044707091
86, -296.12, 0.00, 0.00, 0.00, 0.032, -0.976, -0.400, 19:18:27.091, 1589044707091
87, 11.86, 0.00, 0.00, 0.00, 0.032, -0.976, -0.400, 19:18:27.107, 1589044707107
88, -149.75, 0.00, 0.00, 0.00, 0.032, -0.976, -0.400, 19:18:27.107, 1589044707107
89, -444.33, 0.00, 0.00, 0.00, 0.032, -0.976, -0.400, 19:18:27.108, 1589044707108
90, -285.28, 0.00, 0.00, 0.00, 0.032, -0.976, -0.400, 19:18:27.108, 1589044707108
91, 0.49, 0.00, 0.00, 0.00, 0.032, -0.976, -0.400, 19:18:27.122, 1589044707122
92, -130.94, 0.00, 0.00, 0.00, 0.032, -0.976, -0.400, 19:18:27.122, 1589044707122
93, -446.93, 0.00, 0.00, 0.00, 0.032, -0.976, -0.400, 19:18:27.137, 1589044707137
94, -303.72, 0.00, 0.00, 0.00, 0.032, -0.976, -0.400, 19:18:27.137, 1589044707137
95, 8.80, 0.00, 0.00, 0.00, 0.032, -0.976, -0.400, 19:18:27.137, 1589044707137
96, -138.51, 0.00, 0.00, 0.00, 0.032, -0.976, -0.400, 19:18:27.137, 1589044707137
97, -446.69, 0.00, 0.00, 0.00, 0.032, -0.976, -0.400, 19:18:27.151, 1589044707151
98, -295.04, 0.00, 0.00, 0.00, 0.032, -0.976, -0.400, 19:18:27.151, 1589044707151
99, 18.53, 0.00, 0.00, 0.00, 0.032, -0.976, -0.400, 19:18:27.167, 1589044707167
100, -145.08, 0.00, 0.00, 0.00, 0.032, -0.976, -0.400, 19:18:27.167, 1589044707167
101, -439.66, 0.00, 0.00, 0.00, 0.032, -0.976, -0.400, 19:18:27.167, 1589044707167
102, -283.32, 0.00, 0.00, 0.00, 0.032, -0.976, -0.400, 19:18:27.167, 1589044707167
103, 3.69, 0.00, 0.00, 0.00, 0.032, -0.976, -0.400, 19:18:27.181, 1589044707181
104, -138.63, 0.00, 0.00, 0.00, 0.032, -0.976, -0.400, 19:18:27.181, 1589044707181
105, -427.11, 0.00, 0.00, 0.00, 0.032, -0.976, -0.400, 19:18:27.197, 1589044707197
106, -289.23, 0.00, 0.00, 0.00, 0.032, -0.976, -0.384, 19:18:27.197, 1589044707197
107, 15.19, 0.00, 0.00, 0.00, 0.032, -0.976, -0.384, 19:18:27.197, 1589044707197
108, -148.42, 0.00, 0.00, 0.00, 0.032, -0.976, -0.384, 19:18:27.197, 1589044707197
109, -433.67, 0.00, 0.00, 0.00, 0.032, -0.976, -0.384, 19:18:27.211, 1589044707211
110, -287.70, 0.00, 0.00, 0.00, 0.032, -0.976, -0.384, 19:18:27.211, 1589044707211
111, 5.17, 0.00, 0.00, 0.00, 0.032, -0.976, -0.384, 19:18:27.227, 1589044707227
112, -140.07, 0.00, 0.00, 0.00, 0.032, -0.976, -0.384, 19:18:27.227, 1589044707227
113, -423.42, 0.00, 0.00, 0.00, 0.032, -0.976, -0.384, 19:18:27.227, 1589044707227
114, -302.64, 0.00, 0.00, 0.00, 0.032, -0.976, -0.384, 19:18:27.227, 1589044707227
115, -5.00, 0.00, 0.00, 0.00, 0.032, -0.976, -0.384, 19:18:27.241, 1589044707241
116, -139.59, 0.00, 0.00, 0.00, 0.032, -0.976, -0.384, 19:18:27.241, 1589044707241
117, -440.78, 0.00, 0.00, 0.00, 0.032, -0.976, -0.384, 19:18:27.257, 1589044707257
118, -295.41, 0.00, 0.00, 0.00, 0.032, -0.976, -0.384, 19:18:27.257, 1589044707257
119, 19.88, 0.00, 0.00, 0.00, 0.032, -0.976, -0.384, 19:18:27.257, 1589044707257
120, -147.02, 0.00, 0.00, 0.00, 0.032, -0.976, -0.384, 19:18:27.257, 1589044707257
121, -441.70, 0.00, 0.00, 0.00, 0.032, -0.976, -0.384, 19:18:27.271, 1589044707271
122, -305.98, 0.00, 0.00, 0.00, 0.032, -0.976, -0.384, 19:18:27.271, 1589044707271
123, -1.85, 0.00, 0.00, 0.00, 0.032, -0.976, -0.384, 19:18:27.303, 1589044707303
124, -141.79, 0.00, 0.00, 0.00, 0.032, -0.976, -0.384, 19:18:27.303, 1589044707303
125, -449.52, 0.00, 0.00, 0.00, 0.032, -0.976, -0.384, 19:18:27.303, 1589044707303
126, -301.53, 0.00, 0.00, 0.00, 0.032, -0.976, -0.384, 19:18:27.303, 1589044707303
127, -9.26, 0.00, 0.00, 0.00, 0.032, -0.976, -0.384, 19:18:27.304, 1589044707304
128, -142.13, 0.00, 0.00, 0.00, 0.032, -0.976, -0.384, 19:18:27.304, 1589044707304
129, -443.68, 0.00, 0.00, 0.00, 0.032, -0.976, -0.384, 19:18:27.317, 1589044707317
130, -314.48, 0.00, 0.00, 0.00, 0.032, -0.976, -0.384, 19:18:27.317, 1589044707317
131, 9.54, 0.00, 0.00, 0.00, 0.032, -0.976, -0.384, 19:18:27.317, 1589044707317
132, -127.32, 0.00, 0.00, 0.00, 0.032, -0.976, -0.384, 19:18:27.317, 1589044707317
133, -449.27, 0.00, 0.00, 0.00, 0.032, -0.976, -0.384, 19:18:27.331, 1589044707331
134, -309.73, 0.00, 0.00, 0.00, 0.032, -0.976, -0.384, 19:18:27.331, 1589044707331
135, 11.47, 0.00, 0.00, 0.00, 0.032, -0.976, -0.384, 19:18:27.347, 1589044707347
136, -162.11, 0.00, 0.00, 0.00, 0.032, -0.976, -0.384, 19:18:27.347, 1589044707347
137, -440.96, 0.00, 0.00, 0.00, 0.032, -0.976, -0.384, 19:18:27.348, 1589044707348
138, -314.58, 0.00, 0.00, 0.00, 0.032, -0.976, -0.384, 19:18:27.348, 1589044707348
139, -10.00, 0.00, 0.00, 0.00, 0.032, -0.976, -0.384, 19:18:27.361, 1589044707361
140, -144.72, 0.00, 0.00, 0.00, 0.032, -0.976, -0.384, 19:18:27.361, 1589044707361
141, -464.88, 0.00, 0.00, 0.00, 0.032, -0.976, -0.384, 19:18:27.377, 1589044707377
142, -322.08, 0.00, 0.00, 0.00, 0.032, -0.976, -0.384, 19:18:27.377, 1589044707377
143, -7.80, 0.00, 0.00, 0.00, 0.032, -0.976, -0.384, 19:18:27.377, 1589044707377
144, -152.17, 0.00, 0.00, 0.00, 0.032, -0.976, -0.384, 19:18:27.377, 1589044707377
145, -465.36, 0.00, 0.00, 0.00, 0.032, -0.976, -0.384, 19:18:27.408, 1589044707408
146, -327.27, 0.00, 0.00, 0.00, 0.032, -0.976, -0.384, 19:18:27.408, 1589044707408
147, -3.32, 0.00, 0.00, 0.00, 0.032, -0.976, -0.384, 19:18:27.408, 1589044707408
148, -169.61, 0.00, 0.00, 0.00, 0.032, -0.976, -0.384, 19:18:27.408, 1589044707408
149, -463.95, 0.00, 0.00, 0.00, 0.032, -0.976, -0.384, 19:18:27.409, 1589044707409
150, -308.75, 0.00, 0.00, 0.00, 0.032, -0.976, -0.384, 19:18:27.409, 1589044707409
151, -19.26, 0.00, 0.00, 0.00, 0.032, -0.976, -0.384, 19:18:27.421, 1589044707421
152, -161.00, 0.00, 0.00, 0.00, 0.032, -0.976, -0.384, 19:18:27.421, 1589044707421
153, -458.08, 0.00, 0.00, 0.00, 0.032, -0.976, -0.384, 19:18:27.437, 1589044707437
154, -316.29, 0.00, 0.00, 0.00, 0.032, -0.976, -0.384, 19:18:27.437, 1589044707437
155, -12.41, 0.00, 0.00, 0.00, 0.032, -0.976, -0.384, 19:18:27.438, 1589044707438
156, -167.25, 0.00, 0.00, 0.00, 0.032, -0.976, -0.384, 19:18:27.438, 1589044707438
157, -445.81, 0.00, 0.00, 0.00, 0.032, -0.976, -0.384, 19:18:27.451, 1589044707451
158, -319.42, 0.00, 0.00, 0.00, 0.032, -0.976, -0.384, 19:18:27.451, 1589044707451
159, -7.65, 0.00, 0.00, 0.00, 0.032, -0.976, -0.384, 19:18:27.467, 1589044707467
160, -171.35, 0.00, 0.00, 0.00, 0.032, -0.976, -0.384, 19:18:27.467, 1589044707467
161, -465.14, 0.00, 0.00, 0.00, 0.032, -0.976, -0.384, 19:18:27.468, 1589044707468
162, -318.70, 0.00, 0.00, 0.00, 0.032, -0.976, -0.384, 19:18:27.468, 1589044707468
163, -26.47, 0.00, 0.00, 0.00, 0.032, -0.976, -0.384, 19:18:27.481, 1589044707481
164, -164.94, 0.00, 0.00, 0.00, 0.032, -0.976, -0.384, 19:18:27.481, 1589044707481
165, -453.74, 0.00, 0.00, 0.00, 0.032, -0.976, -0.384, 19:18:27.497, 1589044707497
166, -327.45, 0.00, 0.00, 0.00, 0.048, -0.976, -0.400, 19:18:27.497, 1589044707497
167, -6.42, 0.00, 0.00, 0.00, 0.048, -0.976, -0.400, 19:18:27.497, 1589044707497
168, -152.39, 0.00, 0.00, 0.00, 0.048, -0.976, -0.400, 19:18:27.497, 1589044707497
169, -452.84, 0.00, 0.00, 0.00, 0.048, -0.976, -0.400, 19:18:27.511, 1589044707511
170, -299.46, 0.00, 0.00, 0.00, 0.048, -0.976, -0.400, 19:18:27.511, 1589044707511
171, -13.66, 0.00, 0.00, 0.00, 0.048, -0.976, -0.400, 19:18:27.527, 1589044707527
172, -156.99, 0.00, 0.00, 0.00, 0.048, -0.976, -0.400, 19:18:27.527, 1589044707527
173, -449.89, 0.00, 0.00, 0.00, 0.048, -0.976, -0.400, 19:18:27.528, 1589044707528
174, -296.39, 0.00, 0.00, 0.00, 0.048, -0.976, -0.400, 19:18:27.528, 1589044707528
175, -5.97, 0.00, 0.00, 0.00, 0.048, -0.976, -0.400, 19:18:27.541, 1589044707541
176, -147.28, 0.00, 0.00, 0.00, 0.048, -0.976, -0.400, 19:18:27.541, 1589044707541
177, -430.36, 0.00, 0.00, 0.00, 0.048, -0.976, -0.400, 19:18:27.557, 1589044707557
178, -318.87, 0.00, 0.00, 0.00, 0.048, -0.976, -0.400, 19:18:27.557, 1589044707557
179, -1.71, 0.00, 0.00, 0.00, 0.048, -0.976, -0.400, 19:18:27.558, 1589044707558
180, -138.19, 0.00, 0.00, 0.00, 0.048, -0.976, -0.400, 19:18:27.558, 1589044707558
181, -455.04, 0.00, 0.00, 0.00, 0.048, -0.976, -0.400, 19:18:27.571, 1589044707571
182, -287.20, 0.00, 0.00, 0.00, 0.048, -0.976, -0.400, 19:18:27.571, 1589044707571
183, -1.75, 0.00, 0.00, 0.00, 0.048, -0.976, -0.400, 19:18:27.587, 1589044707587
184, -149.39, 0.00, 0.00, 0.00, 0.048, -0.976, -0.400, 19:18:27.587, 1589044707587
185, -425.64, 0.00, 0.00, 0.00, 0.048, -0.976, -0.400, 19:18:27.588, 1589044707588
186, -302.22, 0.00, 0.00, 0.00, 0.032, -0.976, -0.400, 19:18:27.588, 1589044707588
187, -0.27, 0.00, 0.00, 0.00, 0.032, -0.976, -0.400, 19:18:27.601, 1589044707601
188, -143.38, 0.00, 0.00, 0.00, 0.032, -0.976, -0.400, 19:18:27.601, 1589044707601
189, -432.87, 0.00, 0.00, 0.00, 0.032, -0.976, -0.400, 19:18:27.617, 1589044707617
190, -306.63, 0.00, 0.00, 0.00, 0.032, -0.976, -0.400, 19:18:27.617, 1589044707617
191, 3.93, 0.00, 0.00, 0.00, 0.032, -0.976, -0.400, 19:18:27.632, 1589044707632
192, -138.33, 0.00, 0.00, 0.00, 0.032, -0.976, -0.400, 19:18:27.632, 1589044707632
193, -453.92, 0.00, 0.00, 0.00, 0.032, -0.976, -0.400, 19:18:27.632, 1589044707632
194, -308.00, 0.00, 0.00, 0.00, 0.032, -0.976, -0.400, 19:18:27.632, 1589044707632
195, 13.37, 0.00, 0.00, 0.00, 0.032, -0.976, -0.400, 19:18:27.647, 1589044707647
196, -154.15, 0.00, 0.00, 0.00, 0.032, -0.976, -0.400, 19:18:27.647, 1589044707647
197, -438.13, 0.00, 0.00, 0.00, 0.032, -0.976, -0.400, 19:18:27.647, 1589044707647
198, -312.81, 0.00, 0.00, 0.00, 0.032, -0.976, -0.400, 19:18:27.647, 1589044707647
199, -8.56, 0.00, 0.00, 0.00, 0.032, -0.976, -0.400, 19:18:27.662, 1589044707662
200, -147.73, 0.00, 0.00, 0.00, 0.032, -0.976, -0.400, 19:18:27.662, 1589044707662
0, -447.43, 0.00, 0.00, 0.00, 0.032, -0.976, -0.400, 19:18:27.663, 1589044707663
1, -325.01, 0.00, 0.00, 0.00, 0.032, -0.976, -0.400, 19:18:27.677, 1589044707677
2, -8.44, 0.00, 0.00, 0.00, 0.032, -0.976, -0.400, 19:18:27.677, 1589044707677
3, -144.15, 0.00, 0.00, 0.00, 0.032, -0.976, -0.400, 19:18:27.692, 1589044707692
4, -464.18, 0.00, 0.00, 0.00, 0.032, -0.976, -0.400, 19:18:27.692, 1589044707692
5, -314.71, 0.00, 0.00, 0.00, 0.032, -0.976, -0.400, 19:18:27.693, 1589044707693
6, -9.63, 0.00, 0.00, 0.00, 0.048, -0.976, -0.400, 19:18:27.693, 1589044707693
7, -158.73, 0.00, 0.00, 0.00, 0.048, -0.976, -0.400, 19:18:27.706, 1589044707706
8, -432.78, 0.00, 0.00, 0.00, 0.048, -0.976, -0.400, 19:18:27.706, 1589044707706
9, -314.19, 0.00, 0.00, 0.00, 0.048, -0.976, -0.400, 19:18:27.723, 1589044707723
10, -3.86, 0.00, 0.00, 0.00, 0.048, -0.976, -0.400, 19:18:27.723, 1589044707723
11, -156.05, 0.00, 0.00, 0.00, 0.048, -0.976, -0.400, 19:18:27.723, 1589044707723
12, -469.35, 0.00, 0.00, 0.00, 0.048, -0.976, -0.400, 19:18:27.723, 1589044707723
13, -300.10, 0.00, 0.00, 0.00, 0.048, -0.976, -0.400, 19:18:27.753, 1589044707753
14, -5.91, 0.00, 0.00, 0.00, 0.048, -0.976, -0.400, 19:18:27.753, 1589044707753
15, -160.53, 0.00, 0.00, 0.00, 0.048, -0.976, -0.400, 19:18:27.753, 1589044707753
16, -441.36, 0.00, 0.00, 0.00, 0.048, -0.976, -0.400, 19:18:27.753, 1589044707753
17, -318.74, 0.00, 0.00, 0.00, 0.048, -0.976, -0.400, 19:18:27.754, 1589044707754
18, -6.84, 0.00, 0.00, 0.00, 0.048, -0.976, -0.400, 19:18:27.754, 1589044707754
19, -147.86, 0.00, 0.00, 0.00, 0.048, -0.976, -0.400, 19:18:27.783, 1589044707783
20, -454.45, 0.00, 0.00, 0.00, 0.048, -0.976, -0.400, 19:18:27.783, 1589044707783
21, -308.38, 0.00, 0.00, 0.00, 0.048, -0.976, -0.400, 19:18:27.783, 1589044707783
22, 13.92, 0.00, 0.00, 0.00, 0.048, -0.976, -0.400, 19:18:27.783, 1589044707783
23, -144.84, 0.00, 0.00, 0.00, 0.048, -0.976, -0.400, 19:18:27.784, 1589044707784
24, -450.58, 0.00, 0.00, 0.00, 0.048, -0.976, -0.400, 19:18:27.784, 1589044707784
25, -310.16, 0.00, 0.00, 0.00, 0.048, -0.976, -0.400, 19:18:27.797, 1589044707797
26, -0.07, 0.00, 0.00, 0.00, 0.048, -0.976, -0.400, 19:18:27.797, 1589044707797
27, -147.27, 0.00, 0.00, 0.00, 0.048, -0.976, -0.400, 19:18:27.812, 1589044707812
28, -445.28, 0.00, 0.00, 0.00, 0.048, -0.976, -0.400, 19:18:27.812, 1589044707812
29, -295.87, 0.00, 0.00, 0.00, 0.048, -0.976, -0.400, 19:18:27.813, 1589044707813
30, -9.45, 0.00, 0.00, 0.00, 0.048, -0.976, -0.400, 19:18:27.813, 1589044707813
31, -150.39, 0.00, 0.00, 0.00, 0.048, -0.976, -0.400, 19:18:27.826, 1589044707826
32, -427.62, 0.00, 0.00, 0.00, 0.048, -0.976, -0.400, 19:18:27.827, 1589044707827
33, -310.20, 0.00, 0.00, 0.00, 0.048, -0.976, -0.400, 19:18:27.842, 1589044707842
34, 2.76, 0.00, 0.00, 0.00, 0.048, -0.976, -0.400, 19:18:27.842, 1589044707842
35, -141.07, 0.00, 0.00, 0.00, 0.048, -0.976, -0.400, 19:18:27.843, 1589044707843
36, -444.08, 0.00, 0.00, 0.00, 0.048, -0.976, -0.400, 19:18:27.843, 1589044707843
37, -297.33, 0.00, 0.00, 0.00, 0.048, -0.976, -0.400, 19:18:27.856, 1589044707856
38, -2.57, 0.00, 0.00, 0.00, 0.048, -0.976, -0.400, 19:18:27.856, 1589044707856
39, -146.47, 0.00, 0.00, 0.00, 0.048, -0.976, -0.400, 19:18:27.872, 1589044707872
40, -440.54, 0.00, 0.00, 0.00, 0.048, -0.976, -0.400, 19:18:27.872, 1589044707872
41, -314.85, 0.00, 0.00, 0.00, 0.048, -0.976, -0.400, 19:18:27.872, 1589044707872
42, -5.03, 0.00, 0.00, 0.00, 0.048, -0.976, -0.400, 19:18:27.872, 1589044707872
43, -142.67, 0.00, 0.00, 0.00, 0.048, -0.976, -0.400, 19:18:27.886, 1589044707886
44, -443.86, 0.00, 0.00, 0.00, 0.048, -0.976, -0.400, 19:18:27.886, 1589044707886
45, -314.06, 0.00, 0.00, 0.00, 0.048, -0.976, -0.400, 19:18:27.902, 1589044707902
46, -3.65, 0.00, 0.00, 0.00, 0.048, -0.992, -0.384, 19:18:27.902, 1589044707902
47, -137.12, 0.00, 0.00, 0.00, 0.048, -0.992, -0.384, 19:18:27.903, 1589044707903
48, -451.98, 0.00, 0.00, 0.00, 0.048, -0.992, -0.384, 19:18:27.903, 1589044707903
49, -321.18, 0.00, 0.00, 0.00, 0.048, -0.992, -0.384, 19:18:27.933, 1589044707933
50, 12.80, 0.00, 0.00, 0.00, 0.048, -0.992, -0.384, 19:18:27.933, 1589044707933
51, -138.83, 0.00, 0.00, 0.00, 0.048, -0.992, -0.384, 19:18:27.933, 1589044707933
52, -435.06, 0.00, 0.00, 0.00, 0.048, -0.992, -0.384, 19:18:27.933, 1589044707933
53, -310.66, 0.00, 0.00, 0.00, 0.048, -0.992, -0.384, 19:18:27.934, 1589044707934
54, -3.29, 0.00, 0.00, 0.00, 0.048, -0.992, -0.384, 19:18:27.934, 1589044707934
55, -135.96, 0.00, 0.00, 0.00, 0.048, -0.992, -0.384, 19:18:27.946, 1589044707946
56, -450.62, 0.00, 0.00, 0.00, 0.048, -0.992, -0.384, 19:18:27.946, 1589044707946
57, -310.09, 0.00, 0.00, 0.00, 0.048, -0.992, -0.384, 19:18:27.962, 1589044707962
58, 4.79, 0.00, 0.00, 0.00, 0.048, -0.992, -0.384, 19:18:27.962, 1589044707962
59, -131.81, 0.00, 0.00, 0.00, 0.048, -0.992, -0.384, 19:18:27.962, 1589044707962
60, -451.14, 0.00, 0.00, 0.00, 0.048, -0.992, -0.384, 19:18:27.962, 1589044707962
61, -308.17, 0.00, 0.00, 0.00, 0.048, -0.992, -0.384, 19:18:27.976, 1589044707976
62, -7.85, 0.00, 0.00, 0.00, 0.048, -0.992, -0.384, 19:18:27.976, 1589044707976
63, -145.98, 0.00, 0.00, 0.00, 0.048, -0.992, -0.384, 19:18:27.993, 1589044707993
64, -433.48, 0.00, 0.00, 0.00, 0.048, -0.992, -0.384, 19:18:27.993, 1589044707993
65, -304.22, 0.00, 0.00, 0.00, 0.048, -0.992, -0.384, 19:18:27.993, 1589044707993
66, -3.31, 0.00, 0.00, 0.00, 0.048, -0.976, -0.384, 19:18:27.993, 1589044707993
67, -145.07, 0.00, 0.00, 0.00, 0.048, -0.976, -0.384, 19:18:28.006, 1589044708006
68, -441.08, 0.00, 0.00, 0.00, 0.048, -0.976, -0.384, 19:18:28.006, 1589044708006
69, -311.24, 0.00, 0.00, 0.00, 0.048, -0.976, -0.384, 19:18:28.022, 1589044708022
70, -10.09, 0.00, 0.00, 0.00, 0.048, -0.976, -0.384, 19:18:28.022, 1589044708022
71, -130.12, 0.00, 0.00, 0.00, 0.048, -0.976, -0.384, 19:18:28.023, 1589044708023
72, -435.95, 0.00, 0.00, 0.00, 0.048, -0.976, -0.384, 19:18:28.023, 1589044708023
73, -316.76, 0.00, 0.00, 0.00, 0.048, -0.976, -0.384, 19:18:28.036, 1589044708036
74, -4.02, 0.00, 0.00, 0.00, 0.048, -0.976, -0.384, 19:18:28.036, 1589044708036
75, -143.46, 0.00, 0.00, 0.00, 0.048, -0.976, -0.384, 19:18:28.052, 1589044708052
76, -443.39, 0.00, 0.00, 0.00, 0.048, -0.976, -0.384, 19:18:28.052, 1589044708052
77, -297.77, 0.00, 0.00, 0.00, 0.048, -0.976, -0.384, 19:18:28.052, 1589044708052
78, -0.87, 0.00, 0.00, 0.00, 0.048, -0.976, -0.384, 19:18:28.052, 1589044708052
79, -132.85, 0.00, 0.00, 0.00, 0.048, -0.976, -0.384, 19:18:28.066, 1589044708066
80, -444.05, 0.00, 0.00, 0.00, 0.048, -0.976, -0.384, 19:18:28.066, 1589044708066
81, -315.10, 0.00, 0.00, 0.00, 0.048, -0.976, -0.384, 19:18:28.082, 1589044708082
82, 13.16, 0.00, 0.00, 0.00, 0.048, -0.976, -0.384, 19:18:28.082, 1589044708082
83, -139.96, 0.00, 0.00, 0.00, 0.048, -0.976, -0.384, 19:18:28.083, 1589044708083
84, -451.56, 0.00, 0.00, 0.00, 0.048, -0.976, -0.384, 19:18:28.083, 1589044708083
85, -310.45, 0.00, 0.00, 0.00, 0.048, -0.976, -0.384, 19:18:28.096, 1589044708096
86, 2.28, 0.00, 0.00, 0.00, 0.048, -0.976, -0.384, 19:18:28.096, 1589044708096
87, -144.61, 0.00, 0.00, 0.00, 0.048, -0.976, -0.384, 19:18:28.112, 1589044708112
88, -457.59, 0.00, 0.00, 0.00, 0.048, -0.976, -0.384, 19:18:28.112, 1589044708112
89, -308.61, 0.00, 0.00, 0.00, 0.048, -0.976, -0.384, 19:18:28.113, 1589044708113
90, -8.45, 0.00, 0.00, 0.00, 0.048, -0.976, -0.384, 19:18:28.113, 1589044708113
91, -144.94, 0.00, 0.00, 0.00, 0.048, -0.976, -0.384, 19:18:28.126, 1589044708126
92, -431.66, 0.00, 0.00, 0.00, 0.048, -0.976, -0.384, 19:18:28.126, 1589044708126
93, -312.44, 0.00, 0.00, 0.00, 0.048, -0.976, -0.384, 19:18:28.142, 1589044708142
94, -7.85, 0.00, 0.00, 0.00, 0.048, -0.976, -0.384, 19:18:28.142, 1589044708142
95, -138.55, 0.00, 0.00, 0.00, 0.048, -0.976, -0.384, 19:18:28.143, 1589044708143
96, -442.17, 0.00, 0.00, 0.00, 0.048, -0.976, -0.384, 19:18:28.143, 1589044708143
97, -319.48, 0.00, 0.00, 0.00, 0.048, -0.976, -0.384, 19:18:28.156, 1589044708156
98, -6.96, 0.00, 0.00, 0.00, 0.048, -0.976, -0.384, 19:18:28.156, 1589044708156
99, -124.75, 0.00, 0.00, 0.00, 0.048, -0.976, -0.384, 19:18:28.188, 1589044708188
100, -436.68, 0.00, 0.00, 0.00, 0.048, -0.976, -0.384, 19:18:28.188, 1589044708188
101, -302.17, 0.00, 0.00, 0.00, 0.048, -0.976, -0.384, 19:18:28.188, 1589044708188
102, 3.85, 0.00, 0.00, 0.00, 0.048, -0.976, -0.384, 19:18:28.188, 1589044708188
103, -128.04, 0.00, 0.00, 0.00, 0.048, -0.976, -0.384, 19:18:28.189, 1589044708189
104, -442.00, 0.00, 0.00, 0.00, 0.048, -0.976, -0.384, 19:18:28.189, 1589044708189
105, -300.83, 0.00, 0.00, 0.00, 0.048, -0.976, -0.384, 19:18:28.202, 1589044708202
106, 23.90, 0.00, 0.00, 0.00, 0.032, -0.976, -0.384, 19:18:28.202, 1589044708202
107, -123.22, 0.00, 0.00, 0.00, 0.032, -0.976, -0.384, 19:18:28.203, 1589044708203
108, -434.37, 0.00, 0.00, 0.00, 0.032, -0.976, -0.384, 19:18:28.203, 1589044708203
109, -292.77, 0.00, 0.00, 0.00, 0.032, -0.976, -0.384, 19:18:28.216, 1589044708216
110, 35.36, 0.00, 0.00, 0.00, 0.032, -0.976, -0.384, 19:18:28.216, 1589044708216
111, -130.62, 0.00, 0.00, 0.00, 0.032, -0.976, -0.384, 19:18:28.232, 1589044708232
112, -439.81, 0.00, 0.00, 0.00, 0.032, -0.976, -0.384, 19:18:28.232, 1589044708232
113, -282.45, 0.00, 0.00, 0.00, 0.032, -0.976, -0.384, 19:18:28.233, 1589044708233
114, 16.31, 0.00, 0.00, 0.00, 0.032, -0.976, -0.384, 19:18:28.233, 1589044708233
115, -121.06, 0.00, 0.00, 0.00, 0.032, -0.976, -0.384, 19:18:28.246, 1589044708246
116, -416.29, 0.00, 0.00, 0.00, 0.032, -0.976, -0.384, 19:18:28.246, 1589044708246
117, -289.25, 0.00, 0.00, 0.00, 0.032, -0.976, -0.384, 19:18:28.262, 1589044708262
118, 10.59, 0.00, 0.00, 0.00, 0.032, -0.976, -0.384, 19:18:28.262, 1589044708262
119, -121.15, 0.00, 0.00, 0.00, 0.032, -0.976, -0.384, 19:18:28.263, 1589044708263
120, -405.35, 0.00, 0.00, 0.00, 0.032, -0.976, -0.384, 19:18:28.263, 1589044708263
121, -294.50, 0.00, 0.00, 0.00, 0.032, -0.976, -0.384, 19:18:28.276, 1589044708276
122, 19.74, 0.00, 0.00, 0.00, 0.032, -0.976, -0.384, 19:18:28.276, 1589044708276
123, -114.11, 0.00, 0.00, 0.00, 0.032, -0.976, -0.384, 19:18:28.293, 1589044708293
124, -440.03, 0.00, 0.00, 0.00, 0.032, -0.976, -0.384, 19:18:28.293, 1589044708293
125, -275.41, 0.00, 0.00, 0.00, 0.032, -0.976, -0.384, 19:18:28.293, 1589044708293
126, 18.07, 0.00, 0.00, 0.00, 0.048, -0.976, -0.384, 19:18:28.293, 1589044708293
127, -116.39, 0.00, 0.00, 0.00, 0.048, -0.976, -0.384, 19:18:28.307, 1589044708307
128, -427.75, 0.00, 0.00, 0.00, 0.048, -0.976, -0.384, 19:18:28.307, 1589044708307
129, -289.60, 0.00, 0.00, 0.00, 0.048, -0.976, -0.384, 19:18:28.322, 1589044708322
130, 30.44, 0.00, 0.00, 0.00, 0.048, -0.976, -0.384, 19:18:28.322, 1589044708322
131, -118.55, 0.00, 0.00, 0.00, 0.048, -0.976, -0.384, 19:18:28.323, 1589044708323
132, -433.73, 0.00, 0.00, 0.00, 0.048, -0.976, -0.384, 19:18:28.323, 1589044708323
133, -279.55, 0.00, 0.00, 0.00, 0.048, -0.976, -0.384, 19:18:28.336, 1589044708336
134, 15.63, 0.00, 0.00, 0.00, 0.048, -0.976, -0.384, 19:18:28.336, 1589044708336
135, -126.96, 0.00, 0.00, 0.00, 0.048, -0.976, -0.384, 19:18:28.352, 1589044708352
136, -436.03, 0.00, 0.00, 0.00, 0.048, -0.976, -0.384, 19:18:28.352, 1589044708352
137, -277.77, 0.00, 0.00, 0.00, 0.048, -0.976, -0.384, 19:18:28.353, 1589044708353
138, 16.15, 0.00, 0.00, 0.00, 0.048, -0.976, -0.384, 19:18:28.353, 1589044708353
139, -125.71, 0.00, 0.00, 0.00, 0.048, -0.976, -0.384, 19:18:28.366, 1589044708366
140, -417.58, 0.00, 0.00, 0.00, 0.048, -0.976, -0.384, 19:18:28.366, 1589044708366
141, -291.35, 0.00, 0.00, 0.00, 0.048, -0.976, -0.384, 19:18:28.382, 1589044708382
142, 18.30, 0.00, 0.00, 0.00, 0.048, -0.976, -0.384, 19:18:28.382, 1589044708382
143, -111.15, 0.00, 0.00, 0.00, 0.048, -0.976, -0.384, 19:18:28.383, 1589044708383
144, -429.64, 0.00, 0.00, 0.00, 0.048, -0.976, -0.384, 19:18:28.383, 1589044708383
145, -300.41, 0.00, 0.00, 0.00, 0.048, -0.976, -0.384, 19:18:28.413, 1589044708413
146, 20.98, 0.00, 0.00, 0.00, 0.048, -0.976, -0.368, 19:18:28.413, 1589044708413
147, -122.89, 0.00, 0.00, 0.00, 0.048, -0.976, -0.368, 19:18:28.413, 1589044708413
148, -440.57, 0.00, 0.00, 0.00, 0.048, -0.976, -0.368, 19:18:28.413, 1589044708413
149, -287.83, 0.00, 0.00, 0.00, 0.048, -0.976, -0.368, 19:18:28.414, 1589044708414
150, 5.92, 0.00, 0.00, 0.00, 0.048, -0.976, -0.368, 19:18:28.414, 1589044708414
151, -122.35, 0.00, 0.00, 0.00, 0.048, -0.976, -0.368, 19:18:28.426, 1589044708426
152, -421.23, 0.00, 0.00, 0.00, 0.048, -0.976, -0.368, 19:18:28.426, 1589044708426
153, -290.15, 0.00, 0.00, 0.00, 0.048, -0.976, -0.368, 19:18:28.442, 1589044708442
154, 16.30, 0.00, 0.00, 0.00, 0.048, -0.976, -0.368, 19:18:28.442, 1589044708442
155, -117.16, 0.00, 0.00, 0.00, 0.048, -0.976, -0.368, 19:18:28.442, 1589044708442
156, -423.48, 0.00, 0.00, 0.00, 0.048, -0.976, -0.368, 19:18:28.442, 1589044708442
157, -299.03, 0.00, 0.00, 0.00, 0.048, -0.976, -0.368, 19:18:28.456, 1589044708456
158, 13.91, 0.00, 0.00, 0.00, 0.048, -0.976, -0.368, 19:18:28.456, 1589044708456
159, -114.73, 0.00, 0.00, 0.00, 0.048, -0.976, -0.368, 19:18:28.488, 1589044708488
160, -435.44, 0.00, 0.00, 0.00, 0.048, -0.976, -0.368, 19:18:28.488, 1589044708488
161, -295.68, 0.00, 0.00, 0.00, 0.048, -0.976, -0.368, 19:18:28.488, 1589044708488
162, 19.88, 0.00, 0.00, 0.00, 0.048, -0.976, -0.368, 19:18:28.488, 1589044708488
163, -116.89, 0.00, 0.00, 0.00, 0.048, -0.976, -0.368, 19:18:28.489, 1589044708489
164, -433.51, 0.00, 0.00, 0.00, 0.048, -0.976, -0.368, 19:18:28.489, 1589044708489
165, -297.13, 0.00, 0.00, 0.00, 0.048, -0.976, -0.368, 19:18:28.503, 1589044708503
166, 26.54, 0.00, 0.00, 0.00, 0.048, -0.976, -0.368, 19:18:28.503, 1589044708503
167, -109.71, 0.00, 0.00, 0.00, 0.048, -0.976, -0.368, 19:18:28.503, 1589044708503
168, -418.46, 0.00, 0.00, 0.00, 0.048, -0.976, -0.368, 19:18:28.503, 1589044708503
169, -297.90, 0.00, 0.00, 0.00, 0.048, -0.976, -0.368, 19:18:28.516, 1589044708516
170, 11.28, 0.00, 0.00, 0.00, 0.048, -0.976, -0.368, 19:18:28.516, 1589044708516
171, -120.68, 0.00, 0.00, 0.00, 0.048, -0.976, -0.368, 19:18:28.532, 1589044708532
172, -442.32, 0.00, 0.00, 0.00, 0.048, -0.976, -0.368, 19:18:28.532, 1589044708532
173, -299.78, 0.00, 0.00, 0.00, 0.048, -0.976, -0.368, 19:18:28.532, 1589044708532
174, 25.59, 0.00, 0.00, 0.00, 0.048, -0.976, -0.368, 19:18:28.532, 1589044708532
175, -133.64, 0.00, 0.00, 0.00, 0.048, -0.976, -0.368, 19:18:28.546, 1589044708546
176, -435.98, 0.00, 0.00, 0.00, 0.048, -0.976, -0.368, 19:18:28.546, 1589044708546
177, -292.61, 0.00, 0.00, 0.00, 0.048, -0.976, -0.368, 19:18:28.562, 1589044708562
178, -1.61, 0.00, 0.00, 0.00, 0.048, -0.976, -0.368, 19:18:28.562, 1589044708562
179, -136.05, 0.00, 0.00, 0.00, 0.048, -0.976, -0.368, 19:18:28.562, 1589044708562
180, -442.91, 0.00, 0.00, 0.00, 0.048, -0.976, -0.368, 19:18:28.562, 1589044708562
181, -299.70, 0.00, 0.00, 0.00, 0.048, -0.976, -0.368, 19:18:28.576, 1589044708576
182, 0.96, 0.00, 0.00, 0.00, 0.048, -0.976, -0.368, 19:18:28.576, 1589044708576
183, -137.82, 0.00, 0.00, 0.00, 0.048, -0.976, -0.368, 19:18:28.592, 1589044708592
184, -434.49, 0.00, 0.00, 0.00, 0.048, -0.976, -0.368, 19:18:28.592, 1589044708592
185, -309.61, 0.00, 0.00, 0.00, 0.048, -0.976, -0.368, 19:18:28.594, 1589044708594
186, 18.04, 0.00, 0.00, 0.00, 0.064, -0.976, -0.384, 19:18:28.594, 1589044708594
187, -141.59, 0.00, 0.00, 0.00, 0.064, -0.976, -0.384, 19:18:28.606, 1589044708606
188, -444.82, 0.00, 0.00, 0.00, 0.064, -0.976, -0.384, 19:18:28.606, 1589044708606
189, -300.19, 0.00, 0.00, 0.00, 0.064, -0.976, -0.384, 19:18:28.622, 1589044708622
190, -3.36, 0.00, 0.00, 0.00, 0.064, -0.976, -0.384, 19:18:28.622, 1589044708622
191, -122.02, 0.00, 0.00, 0.00, 0.064, -0.976, -0.384, 19:18:28.622, 1589044708622
192, -445.37, 0.00, 0.00, 0.00, 0.064, -0.976, -0.384, 19:18:28.622, 1589044708622
193, -303.82, 0.00, 0.00, 0.00, 0.064, -0.976, -0.384, 19:18:28.636, 1589044708636
194, 13.04, 0.00, 0.00, 0.00, 0.064, -0.976, -0.384, 19:18:28.636, 1589044708636
195, -123.90, 0.00, 0.00, 0.00, 0.064, -0.976, -0.384, 19:18:28.652, 1589044708652
196, -449.16, 0.00, 0.00, 0.00, 0.064, -0.976, -0.384, 19:18:28.652, 1589044708652
197, -302.52, 0.00, 0.00, 0.00, 0.064, -0.976, -0.384, 19:18:28.668, 1589044708668
198, 16.60, 0.00, 0.00, 0.00, 0.064, -0.976, -0.384, 19:18:28.668, 1589044708668
199, -133.80, 0.00, 0.00, 0.00, 0.064, -0.976, -0.384, 19:18:28.668, 1589044708668
200, -440.60, 0.00, 0.00, 0.00, 0.064, -0.976, -0.384, 19:18:28.668, 1589044708668
0, -293.11, 0.00, 0.00, 0.00, 0.064, -0.976, -0.384, 19:18:28.669, 1589044708669
1, 2.02, 0.00, 0.00, 0.00, 0.064, -0.976, -0.384, 19:18:28.681, 1589044708681
2, -129.09, 0.00, 0.00, 0.00, 0.064, -0.976, -0.384, 19:18:28.681, 1589044708681
3, -444.13, 0.00, 0.00, 0.00, 0.064, -0.976, -0.384, 19:18:28.697, 1589044708697
4, -304.74, 0.00, 0.00, 0.00, 0.064, -0.976, -0.384, 19:18:28.697, 1589044708697
5, 3.07, 0.00, 0.00, 0.00, 0.064, -0.976, -0.384, 19:18:28.697, 1589044708697
6, -138.59, 0.00, 0.00, 0.00, 0.064, -0.992, -0.368, 19:18:28.697, 1589044708697
7, -429.32, 0.00, 0.00, 0.00, 0.064, -0.992, -0.368, 19:18:28.711, 1589044708711
8, -307.60, 0.00, 0.00, 0.00, 0.064, -0.992, -0.368, 19:18:28.711, 1589044708711
9, 13.62, 0.00, 0.00, 0.00, 0.064, -0.992, -0.368, 19:18:28.727, 1589044708727
10, -139.47, 0.00, 0.00, 0.00, 0.064, -0.992, -0.368, 19:18:28.727, 1589044708727
11, -444.76, 0.00, 0.00, 0.00, 0.064, -0.992, -0.368, 19:18:28.742, 1589044708742
12, -296.18, 0.00, 0.00, 0.00, 0.064, -0.992, -0.368, 19:18:28.742, 1589044708742
13, 4.31, 0.00, 0.00, 0.00, 0.064, -0.992, -0.368, 19:18:28.743, 1589044708743
14, -131.75, 0.00, 0.00, 0.00, 0.064, -0.992, -0.368, 19:18:28.743, 1589044708743
15, -419.69, 0.00, 0.00, 0.00, 0.064, -0.992, -0.368, 19:18:28.757, 1589044708757
16, -311.83, 0.00, 0.00, 0.00, 0.064, -0.992, -0.368, 19:18:28.757, 1589044708757
17, 8.33, 0.00, 0.00, 0.00, 0.064, -0.992, -0.368, 19:18:28.757, 1589044708757
18, -129.81, 0.00, 0.00, 0.00, 0.064, -0.992, -0.368, 19:18:28.757, 1589044708757
19, -441.44, 0.00, 0.00, 0.00, 0.064, -0.992, -0.368, 19:18:28.771, 1589044708771
20, -308.69, 0.00, 0.00, 0.00, 0.064, -0.992, -0.368, 19:18:28.771, 1589044708771
21, 1.55, 0.00, 0.00, 0.00, 0.064, -0.992, -0.368, 19:18:28.787, 1589044708787
22, -134.61, 0.00, 0.00, 0.00, 0.064, -0.992, -0.368, 19:18:28.787, 1589044708787
23, -449.90, 0.00, 0.00, 0.00, 0.064, -0.992, -0.368, 19:18:28.787, 1589044708787
24, -306.33, 0.00, 0.00, 0.00, 0.064, -0.992, -0.368, 19:18:28.787, 1589044708787
25, -6.08, 0.00, 0.00, 0.00, 0.064, -0.992, -0.368, 19:18:28.802, 1589044708802
26, -143.27, 0.00, 0.00, 0.00, 0.064, -0.976, -0.368, 19:18:28.802, 1589044708802
27, -444.27, 0.00, 0.00, 0.00, 0.064, -0.976, -0.368, 19:18:28.817, 1589044708817
28, -306.58, 0.00, 0.00, 0.00, 0.064, -0.976, -0.368, 19:18:28.817, 1589044708817
29, 3.61, 0.00, 0.00, 0.00, 0.064, -0.976, -0.368, 19:18:28.817, 1589044708817
30, -128.27, 0.00, 0.00, 0.00, 0.064, -0.976, -0.368, 19:18:28.817, 1589044708817
31, -449.76, 0.00, 0.00, 0.00, 0.064, -0.976, -0.368, 19:18:28.831, 1589044708831
32, -308.34, 0.00, 0.00, 0.00, 0.064, -0.976, -0.368, 19:18:28.831, 1589044708831
33, 16.68, 0.00, 0.00, 0.00, 0.064, -0.976, -0.368, 19:18:28.847, 1589044708847
34, -139.40, 0.00, 0.00, 0.00, 0.064, -0.976, -0.368, 19:18:28.847, 1589044708847
35, -439.96, 0.00, 0.00, 0.00, 0.064, -0.976, -0.368, 19:18:28.847, 1589044708847
36, -301.33, 0.00, 0.00, 0.00, 0.064, -0.976, -0.368, 19:18:28.847, 1589044708847
37, 19.10, 0.00, 0.00, 0.00, 0.064, -0.976, -0.368, 19:18:28.861, 1589044708861
38, -118.54, 0.00, 0.00, 0.00, 0.064, -0.976, -0.368, 19:18:28.861, 1589044708861
39, -411.50, 0.00, 0.00, 0.00, 0.064, -0.976, -0.368, 19:18:28.893, 1589044708893
40, -289.57, 0.00, 0.00, 0.00, 0.064, -0.976, -0.368, 19:18:28.893, 1589044708893
41, 32.02, 0.00, 0.00, 0.00, 0.064, -0.976, -0.368, 19:18:28.894, 1589044708894
42, -92.98, 0.00, 0.00, 0.00, 0.064, -0.976, -0.368, 19:18:28.894, 1589044708894
43, -411.40, 0.00, 0.00, 0.00, 0.064, -0.976, -0.368, 19:18:28.894, 1589044708894
44, -267.09, 0.00, 0.00, 0.00, 0.064, -0.976, -0.368, 19:18:28.894, 1589044708894
45, 59.75, 0.00, 0.00, 0.00, 0.064, -0.976, -0.368, 19:18:28.907, 1589044708907
46, -96.10, 0.00, 0.00, 0.00, 0.064, -0.976, -0.368, 19:18:28.907, 1589044708907
47, -398.37, 0.00, 0.00, 0.00, 0.064, -0.976, -0.368, 19:18:28.908, 1589044708908
48, -261.13, 0.00, 0.00, 0.00, 0.064, -0.976, -0.368, 19:18:28.908, 1589044708908
49, 51.78, 0.00, 0.00, 0.00, 0.064, -0.976, -0.368, 19:18:28.922, 1589044708922
50, -91.84, 0.00, 0.00, 0.00, 0.064, -0.976, -0.368, 19:18:28.922, 1589044708922
51, -408.52, 0.00, 0.00, 0.00, 0.064, -0.976, -0.368, 19:18:28.937, 1589044708937
52, -254.09, 0.00, 0.00, 0.00, 0.064, -0.976, -0.368, 19:18:28.937, 1589044708937
53, 39.89, 0.00, 0.00, 0.00, 0.064, -0.976, -0.368, 19:18:28.937, 1589044708937
54, -84.94, 0.00, 0.00, 0.00, 0.064, -0.976, -0.368, 19:18:28.937, 1589044708937
55, -416.11, 0.00, 0.00, 0.00, 0.064, -0.976, -0.368, 19:18:28.951, 1589044708951
56, -284.88, 0.00, 0.00, 0.00, 0.064, -0.976, -0.368, 19:18:28.951, 1589044708951
57, 40.38, 0.00, 0.00, 0.00, 0.064, -0.976, -0.368, 19:18:28.967, 1589044708967
58, -112.32, 0.00, 0.00, 0.00, 0.064, -0.976, -0.368, 19:18:28.967, 1589044708967
59, -417.89, 0.00, 0.00, 0.00, 0.064, -0.976, -0.368, 19:18:28.968, 1589044708968
60, -284.32, 0.00, 0.00, 0.00, 0.064, -0.976, -0.368, 19:18:28.968, 1589044708968
61, 30.41, 0.00, 0.00, 0.00, 0.064, -0.976, -0.368, 19:18:28.981, 1589044708981
62, -115.85, 0.00, 0.00, 0.00, 0.064, -0.976, -0.368, 19:18:28.981, 1589044708981
63, -418.54, 0.00, 0.00, 0.00, 0.064, -0.976, -0.368, 19:18:28.997, 1589044708997
64, -275.25, 0.00, 0.00, 0.00, 0.064, -0.976, -0.368, 19:18:28.997, 1589044708997
65, 37.93, 0.00, 0.00, 0.00, 0.064, -0.976, -0.368, 19:18:28.997, 1589044708997
66, -112.94, 0.00, 0.00, 0.00, 0.064, -0.976, -0.368, 19:18:28.997, 1589044708997
67, -428.30, 0.00, 0.00, 0.00, 0.064, -0.976, -0.368, 19:18:29.011, 1589044709011
68, -284.69, 0.00, 0.00, 0.00, 0.064, -0.976, -0.368, 19:18:29.011, 1589044709011
69, 26.55, 0.00, 0.00, 0.00, 0.064, -0.976, -0.368, 19:18:29.027, 1589044709027
70, -121.32, 0.00, 0.00, 0.00, 0.064, -0.976, -0.368, 19:18:29.027, 1589044709027
71, -432.48, 0.00, 0.00, 0.00, 0.064, -0.976, -0.368, 19:18:29.028, 1589044709028
72, -285.26, 0.00, 0.00, 0.00, 0.064, -0.976, -0.368, 19:18:29.028, 1589044709028
73, 13.11, 0.00, 0.00, 0.00, 0.064, -0.976, -0.368, 19:18:29.041, 1589044709041
74, -118.50, 0.00, 0.00, 0.00, 0.064, -0.976, -0.368, 19:18:29.041, 1589044709041
75, -440.51, 0.00, 0.00, 0.00, 0.064, -0.976, -0.368, 19:18:29.073, 1589044709073
76, -299.78, 0.00, 0.00, 0.00, 0.064, -0.976, -0.368, 19:18:29.073, 1589044709073
77, 34.12, 0.00, 0.00, 0.00, 0.064, -0.976, -0.368, 19:18:29.073, 1589044709073
78, -128.51, 0.00, 0.00, 0.00, 0.064, -0.976, -0.368, 19:18:29.073, 1589044709073
79, -444.71, 0.00, 0.00, 0.00, 0.064, -0.976, -0.368, 19:18:29.074, 1589044709074
80, -293.55, 0.00, 0.00, 0.00, 0.064, -0.976, -0.368, 19:18:29.074, 1589044709074
81, 1.32, 0.00, 0.00, 0.00, 0.064, -0.976, -0.368, 19:18:29.088, 1589044709088
82, -135.20, 0.00, 0.00, 0.00, 0.064, -0.976, -0.368, 19:18:29.088, 1589044709088
83, -437.12, 0.00, 0.00, 0.00, 0.064, -0.976, -0.368, 19:18:29.088, 1589044709088
84, -299.77, 0.00, 0.00, 0.00, 0.064, -0.976, -0.368, 19:18:29.088, 1589044709088
85, -0.79, 0.00, 0.00, 0.00, 0.064, -0.976, -0.368, 19:18:29.101, 1589044709101
86, -132.18, 0.00, 0.00, 0.00, 0.064, -0.992, -0.368, 19:18:29.101, 1589044709101
87, -421.10, 0.00, 0.00, 0.00, 0.064, -0.992, -0.368, 19:18:29.117, 1589044709117
88, -315.38, 0.00, 0.00, 0.00, 0.064, -0.992, -0.368, 19:18:29.117, 1589044709117
89, 18.92, 0.00, 0.00, 0.00, 0.064, -0.992, -0.368, 19:18:29.117, 1589044709117
90, -133.68, 0.00, 0.00, 0.00, 0.064, -0.992, -0.368, 19:18:29.117, 1589044709117
91, -452.12, 0.00, 0.00, 0.00, 0.064, -0.992, -0.368, 19:18:29.131, 1589044709131
92, -306.04, 0.00, 0.00, 0.00, 0.064, -0.992, -0.368, 19:18:29.131, 1589044709131
93, 12.03, 0.00, 0.00, 0.00, 0.064, -0.992, -0.368, 19:18:29.147, 1589044709147
94, -135.40, 0.00, 0.00, 0.00, 0.064, -0.992, -0.368, 19:18:29.147, 1589044709147
95, -448.88, 0.00, 0.00, 0.00, 0.064, -0.992, -0.368, 19:18:29.148, 1589044709148
96, -300.00, 0.00, 0.00, 0.00, 0.064, -0.992, -0.368, 19:18:29.148, 1589044709148
97, 2.40, 0.00, 0.00, 0.00, 0.064, -0.992, -0.368, 19:18:29.161, 1589044709161
98, -133.92, 0.00, 0.00, 0.00, 0.064, -0.992, -0.368, 19:18:29.161, 1589044709161
99, -443.75, 0.00, 0.00, 0.00, 0.064, -0.992, -0.368, 19:18:29.177, 1589044709177
100, -303.57, 0.00, 0.00, 0.00, 0.064, -0.992, -0.368, 19:18:29.177, 1589044709177
101, 18.09, 0.00, 0.00, 0.00, 0.064, -0.992, -0.368, 19:18:29.177, 1589044709177
102, -144.06, 0.00, 0.00, 0.00, 0.064, -0.992, -0.368, 19:18:29.177, 1589044709177
103, -459.87, 0.00, 0.00, 0.00, 0.064, -0.992, -0.368, 19:18:29.191, 1589044709191
104, -302.57, 0.00, 0.00, 0.00, 0.064, -0.992, -0.368, 19:18:29.191, 1589044709191
105, -2.69, 0.00, 0.00, 0.00, 0.064, -0.992, -0.368, 19:18:29.208, 1589044709208
106, -137.95, 0.00, 0.00, 0.00, 0.064, -0.992, -0.352, 19:18:29.208, 1589044709208
107, -437.69, 0.00, 0.00, 0.00, 0.064, -0.992, -0.352, 19:18:29.209, 1589044709209
108, -300.69, 0.00, 0.00, 0.00, 0.064, -0.992, -0.352, 19:18:29.209, 1589044709209
109, -1.86, 0.00, 0.00, 0.00, 0.064, -0.992, -0.352, 19:18:29.221, 1589044709221
110, -127.38, 0.00, 0.00, 0.00, 0.064, -0.992, -0.352, 19:18:29.221, 1589044709221
111, -444.55, 0.00, 0.00, 0.00, 0.064, -0.992, -0.352, 19:18:29.237, 1589044709237
112, -312.35, 0.00, 0.00, 0.00, 0.064, -0.992, -0.352, 19:18:29.237, 1589044709237
113, 10.81, 0.00, 0.00, 0.00, 0.064, -0.992, -0.352, 19:18:29.238, 1589044709238
114, -138.36, 0.00, 0.00, 0.00, 0.064, -0.992, -0.352, 19:18:29.238, 1589044709238
115, -450.32, 0.00, 0.00, 0.00, 0.064, -0.992, -0.352, 19:18:29.251, 1589044709251
116, -307.86, 0.00, 0.00, 0.00, 0.064, -0.992, -0.352, 19:18:29.251, 1589044709251
117, 21.09, 0.00, 0.00, 0.00, 0.064, -0.992, -0.352, 19:18:29.267, 1589044709267
118, -137.55, 0.00, 0.00, 0.00, 0.064, -0.992, -0.352, 19:18:29.267, 1589044709267
119, -445.03, 0.00, 0.00, 0.00, 0.064, -0.992, -0.352, 19:18:29.268, 1589044709268
120, -303.18, 0.00, 0.00, 0.00, 0.064, -0.992, -0.352, 19:18:29.268, 1589044709268
121, -5.05, 0.00, 0.00, 0.00, 0.064, -0.992, -0.352, 19:18:29.282, 1589044709282
122, -134.63, 0.00, 0.00, 0.00, 0.064, -0.992, -0.352, 19:18:29.282, 1589044709282
123, -427.54, 0.00, 0.00, 0.00, 0.064, -0.992, -0.352, 19:18:29.297, 1589044709297
124, -304.46, 0.00, 0.00, 0.00, 0.064, -0.992, -0.352, 19:18:29.297, 1589044709297
125, 4.71, 0.00, 0.00, 0.00, 0.064, -0.992, -0.352, 19:18:29.298, 1589044709298
126, -130.01, 0.00, 0.00, 0.00, 0.064, -0.976, -0.352, 19:18:29.298, 1589044709298
127, -436.82, 0.00, 0.00, 0.00, 0.064, -0.976, -0.352, 19:18:29.312, 1589044709312
128, -314.13, 0.00, 0.00, 0.00, 0.064, -0.976, -0.352, 19:18:29.312, 1589044709312
129, 6.90, 0.00, 0.00, 0.00, 0.064, -0.976, -0.352, 19:18:29.328, 1589044709328
130, -124.56, 0.00, 0.00, 0.00, 0.064, -0.976, -0.352, 19:18:29.328, 1589044709328
131, -432.14, 0.00, 0.00, 0.00, 0.064, -0.976, -0.352, 19:18:29.328, 1589044709328
132, -306.20, 0.00, 0.00, 0.00, 0.064, -0.976, -0.352, 19:18:29.328, 1589044709328
133, -4.29, 0.00, 0.00, 0.00, 0.064, -0.976, -0.352, 19:18:29.341, 1589044709341
134, -128.62, 0.00, 0.00, 0.00, 0.064, -0.976, -0.352, 19:18:29.341, 1589044709341
135, -441.72, 0.00, 0.00, 0.00, 0.064, -0.976, -0.352, 19:18:29.357, 1589044709357
136, -316.61, 0.00, 0.00, 0.00, 0.064, -0.976, -0.352, 19:18:29.357, 1589044709357
137, 2.49, 0.00, 0.00, 0.00, 0.064, -0.976, -0.352, 19:18:29.357, 1589044709357
138, -125.88, 0.00, 0.00, 0.00, 0.064, -0.976, -0.352, 19:18:29.357, 1589044709357
139, -450.48, 0.00, 0.00, 0.00, 0.064, -0.976, -0.352, 19:18:29.371, 1589044709371
140, -297.53, 0.00, 0.00, 0.00, 0.064, -0.976, -0.352, 19:18:29.371, 1589044709371
141, -7.07, 0.00, 0.00, 0.00, 0.064, -0.976, -0.352, 19:18:29.387, 1589044709387
142, -151.18, 0.00, 0.00, 0.00, 0.064, -0.976, -0.352, 19:18:29.387, 1589044709387
143, -432.22, 0.00, 0.00, 0.00, 0.064, -0.976, -0.352, 19:18:29.388, 1589044709388
144, -302.78, 0.00, 0.00, 0.00, 0.064, -0.976, -0.352, 19:18:29.388, 1589044709388
145, -2.19, 0.00, 0.00, 0.00, 0.064, -0.976, -0.352, 19:18:29.401, 1589044709401
146, -136.51, 0.00, 0.00, 0.00, 0.064, -0.976, -0.368, 19:18:29.401, 1589044709401
147, -448.02, 0.00, 0.00, 0.00, 0.064, -0.976, -0.368, 19:18:29.417, 1589044709417
148, -299.02, 0.00, 0.00, 0.00, 0.064, -0.976, -0.368, 19:18:29.417, 1589044709417
149, -4.48, 0.00, 0.00, 0.00, 0.064, -0.976, -0.368, 19:18:29.417, 1589044709417
150, -140.58, 0.00, 0.00, 0.00, 0.064, -0.976, -0.368, 19:18:29.417, 1589044709417
151, -435.59, 0.00, 0.00, 0.00, 0.064, -0.976, -0.368, 19:18:29.431, 1589044709431
152, -316.18, 0.00, 0.00, 0.00, 0.064, -0.976, -0.368, 19:18:29.431, 1589044709431
153, -6.05, 0.00, 0.00, 0.00, 0.064, -0.976, -0.368, 19:18:29.448, 1589044709448
154, -136.86, 0.00, 0.00, 0.00, 0.064, -0.976, -0.368, 19:18:29.448, 1589044709448
155, -441.80, 0.00, 0.00, 0.00, 0.064, -0.976, -0.368, 19:18:29.448, 1589044709448
156, -300.47, 0.00, 0.00, 0.00, 0.064, -0.976, -0.368, 19:18:29.448, 1589044709448
157, -7.66, 0.00, 0.00, 0.00, 0.064, -0.976, -0.368, 19:18:29.461, 1589044709461
158, -138.45, 0.00, 0.00, 0.00, 0.064, -0.976, -0.368, 19:18:29.461, 1589044709461
159, -432.82, 0.00, 0.00, 0.00, 0.064, -0.976, -0.368, 19:18:29.477, 1589044709477
160, -309.93, 0.00, 0.00, 0.00, 0.064, -0.976, -0.368, 19:18:29.477, 1589044709477
161, -1.42, 0.00, 0.00, 0.00, 0.064, -0.976, -0.368, 19:18:29.478, 1589044709478
162, -133.17, 0.00, 0.00, 0.00, 0.064, -0.976, -0.368, 19:18:29.478, 1589044709478
163, -445.83, 0.00, 0.00, 0.00, 0.064, -0.976, -0.368, 19:18:29.491, 1589044709491
164, -303.76, 0.00, 0.00, 0.00, 0.064, -0.976, -0.368, 19:18:29.491, 1589044709491
165, 8.95, 0.00, 0.00, 0.00, 0.064, -0.976, -0.368, 19:18:29.523, 1589044709523
166, -123.30, 0.00, 0.00, 0.00, 0.064, -0.976, -0.352, 19:18:29.523, 1589044709523
167, -423.11, 0.00, 0.00, 0.00, 0.064, -0.976, -0.352, 19:18:29.523, 1589044709523
168, -302.69, 0.00, 0.00, 0.00, 0.064, -0.976, -0.352, 19:18:29.523, 1589044709523
169, 17.79, 0.00, 0.00, 0.00, 0.064, -0.976, -0.352, 19:18:29.524, 1589044709524
170, -134.90, 0.00, 0.00, 0.00, 0.064, -0.976, -0.352, 19:18:29.524, 1589044709524
171, -454.70, 0.00, 0.00, 0.00, 0.064, -0.976, -0.352, 19:18:29.537, 1589044709537
172, -298.68, 0.00, 0.00, 0.00, 0.064, -0.976, -0.352, 19:18:29.537, 1589044709537
173, 3.59, 0.00, 0.00, 0.00, 0.064, -0.976, -0.352, 19:18:29.538, 1589044709538
174, -136.27, 0.00, 0.00, 0.00, 0.064, -0.976, -0.352, 19:18:29.538, 1589044709538
175, -435.84, 0.00, 0.00, 0.00, 0.064, -0.976, -0.352, 19:18:29.551, 1589044709551
176, -302.32, 0.00, 0.00, 0.00, 0.064, -0.976, -0.352, 19:18:29.551, 1589044709551
177, 5.03, 0.00, 0.00, 0.00, 0.064, -0.976, -0.352, 19:18:29.567, 1589044709567
178, -124.88, 0.00, 0.00, 0.00, 0.064, -0.976, -0.352, 19:18:29.567, 1589044709567
179, -440.56, 0.00, 0.00, 0.00, 0.064, -0.976, -0.352, 19:18:29.568, 1589044709568
180, -302.61, 0.00, 0.00, 0.00, 0.064, -0.976, -0.352, 19:18:29.568, 1589044709568
181, 18.21, 0.00, 0.00, 0.00, 0.064, -0.976, -0.352, 19:18:29.581, 1589044709581
182, -122.15, 0.00, 0.00, 0.00, 0.064, -0.976, -0.352, 19:18:29.581, 1589044709581
183, -434.87, 0.00, 0.00, 0.00, 0.064, -0.976, -0.352, 19:18:29.597, 1589044709597
184, -300.21, 0.00, 0.00, 0.00, 0.064, -0.976, -0.352, 19:18:29.597, 1589044709597
185, 27.25, 0.00, 0.00, 0.00, 0.064, -0.976, -0.352, 19:18:29.597, 1589044709597
186, -126.26, 0.00, 0.00, 0.00, 0.064, -0.992, -0.352, 19:18:29.597, 1589044709597
187, -440.94, 0.00, 0.00, 0.00, 0.064, -0.992, -0.352, 19:18:29.612, 1589044709612
188, -282.22, 0.00, 0.00, 0.00, 0.064, -0.992, -0.352, 19:18:29.612, 1589044709612
189, 10.31, 0.00, 0.00, 0.00, 0.064, -0.992, -0.352, 19:18:29.627, 1589044709627
190, -128.57, 0.00, 0.00, 0.00, 0.064, -0.992, -0.352, 19:18:29.627, 1589044709627
191, -414.12, 0.00, 0.00, 0.00, 0.064, -0.992, -0.352, 19:18:29.627, 1589044709627
192, -302.44, 0.00, 0.00, 0.00, 0.064, -0.992, -0.352, 19:18:29.627, 1589044709627
193, 7.97, 0.00, 0.00, 0.00, 0.064, -0.992, -0.352, 19:18:29.641, 1589044709641
194, -115.49, 0.00, 0.00, 0.00, 0.064, -0.992, -0.352, 19:18:29.641, 1589044709641
195, -419.40, 0.00, 0.00, 0.00, 0.064, -0.992, -0.352, 19:18:29.657, 1589044709657
196, -301.15, 0.00, 0.00, 0.00, 0.064, -0.992, -0.352, 19:18:29.657, 1589044709657
197, 14.50, 0.00, 0.00, 0.00, 0.064, -0.992, -0.352, 19:18:29.658, 1589044709658
198, -112.00, 0.00, 0.00, 0.00, 0.064, -0.992, -0.352, 19:18:29.658, 1589044709658
199, -428.40, 0.00, 0.00, 0.00, 0.064, -0.992, -0.352, 19:18:29.672, 1589044709672
200, -289.83, 0.00, 0.00, 0.00, 0.064, -0.992, -0.352, 19:18:29.672, 1589044709672
0, 9.88, 0.00, 0.00, 0.00, 0.064, -0.992, -0.352, 19:18:29.673, 1589044709673
1, -119.44, 0.00, 0.00, 0.00, 0.064, -0.992, -0.352, 19:18:29.686, 1589044709686
2, -416.16, 0.00, 0.00, 0.00, 0.064, -0.992, -0.352, 19:18:29.686, 1589044709686
3, -304.57, 0.00, 0.00, 0.00, 0.064, -0.992, -0.352, 19:18:29.702, 1589044709702
4, 13.08, 0.00, 0.00, 0.00, 0.064, -0.992, -0.352, 19:18:29.702, 1589044709702
5, -108.27, 0.00, 0.00, 0.00, 0.064, -0.992, -0.352, 19:18:29.702, 1589044709702
6, -442.41, 0.00, 0.00, 0.00, 0.064, -0.992, -0.352, 19:18:29.702, 1589044709702
7, -306.20, 0.00, 0.00, 0.00, 0.064, -0.992, -0.352, 19:18:29.716, 1589044709716
8, 15.17, 0.00, 0.00, 0.00, 0.064, -0.992, -0.352, 19:18:29.716, 1589044709716
9, -111.88, 0.00, 0.00, 0.00, 0.064, -0.992, -0.352, 19:18:29.732, 1589044709732
10, -441.22, 0.00, 0.00, 0.00, 0.064, -0.992, -0.352, 19:18:29.732, 1589044709732
11, -299.36, 0.00, 0.00, 0.00, 0.064, -0.992, -0.352, 19:18:29.733, 1589044709733
12, 30.33, 0.00, 0.00, 0.00, 0.064, -0.992, -0.352, 19:18:29.733, 1589044709733
13, -121.57, 0.00, 0.00, 0.00, 0.064, -0.992, -0.352, 19:18:29.746, 1589044709746
14, -433.09, 0.00, 0.00, 0.00, 0.064, -0.992, -0.352, 19:18:29.746, 1589044709746
15, -292.61, 0.00, 0.00, 0.00, 0.064, -0.992, -0.352, 19:18:29.762, 1589044709762
16, -1.18, 0.00, 0.00, 0.00, 0.064, -0.992, -0.352, 19:18:29.762, 1589044709762
17, -123.73, 0.00, 0.00, 0.00, 0.064, -0.992, -0.352, 19:18:29.762, 1589044709762
18, -431.60, 0.00, 0.00, 0.00, 0.064, -0.992, -0.352, 19:18:29.762, 1589044709762
19, -291.47, 0.00, 0.00, 0.00, 0.064, -0.992, -0.352, 19:18:29.776, 1589044709776
20, 9.13, 0.00, 0.00, 0.00, 0.064, -0.992, -0.352, 19:18:29.776, 1589044709776
21, -123.07, 0.00, 0.00, 0.00, 0.064, -0.992, -0.352, 19:18:29.792, 1589044709792
22, -423.18, 0.00, 0.00, 0.00, 0.064, -0.992, -0.352, 19:18:29.792, 1589044709792
23, -300.02, 0.00, 0.00, 0.00, 0.064, -0.992, -0.352, 19:18:29.793, 1589044709793
24, 29.79, 0.00, 0.00, 0.00, 0.064, -0.992, -0.352, 19:18:29.793, 1589044709793
25, -127.96, 0.00, 0.00, 0.00, 0.064, -0.992, -0.352, 19:18:29.807, 1589044709807
26, -433.47, 0.00, 0.00, 0.00, 0.064, -0.992, -0.352, 19:18:29.807, 1589044709807
27, -290.41, 0.00, 0.00, 0.00, 0.064, -0.992, -0.352, 19:18:29.822, 1589044709822
28, 5.29, 0.00, 0.00, 0.00, 0.064, -0.992, -0.352, 19:18:29.822, 1589044709822
29, -123.17, 0.00, 0.00, 0.00, 0.064, -0.992, -0.352, 19:18:29.823, 1589044709823
30, -422.50, 0.00, 0.00, 0.00, 0.064, -0.992, -0.352, 19:18:29.823, 1589044709823
31, -310.77, 0.00, 0.00, 0.00, 0.064, -0.992, -0.352, 19:18:29.836, 1589044709836
32, 6.01, 0.00, 0.00, 0.00, 0.064, -0.992, -0.352, 19:18:29.836, 1589044709836
33, -114.19, 0.00, 0.00, 0.00, 0.064, -0.992, -0.352, 19:18:29.852, 1589044709852
34, -447.36, 0.00, 0.00, 0.00, 0.064, -0.992, -0.352, 19:18:29.852, 1589044709852
35, -300.98, 0.00, 0.00, 0.00, 0.064, -0.992, -0.352, 19:18:29.853, 1589044709853
36, 9.67, 0.00, 0.00, 0.00, 0.064, -0.992, -0.352, 19:18:29.853, 1589044709853
37, -116.94, 0.00, 0.00, 0.00, 0.064, -0.992, -0.352, 19:18:29.866, 1589044709866
38, -438.64, 0.00, 0.00, 0.00, 0.064, -0.992, -0.352, 19:18:29.866, 1589044709866
39, -307.03, 0.00, 0.00, 0.00, 0.064, -0.992, -0.352, 19:18:29.882, 1589044709882
40, 16.08, 0.00, 0.00, 0.00, 0.064, -0.992, -0.352, 19:18:29.882, 1589044709882
41, -121.93, 0.00, 0.00, 0.00, 0.064, -0.992, -0.352, 19:18:29.883, 1589044709883
42, -431.47, 0.00, 0.00, 0.00, 0.064, -0.992, -0.352, 19:18:29.883, 1589044709883
43, -285.85, 0.00, 0.00, 0.00, 0.064, -0.992, -0.352, 19:18:29.896, 1589044709896
44, 7.89, 0.00, 0.00, 0.00, 0.064, -0.992, -0.352, 19:18:29.896, 1589044709896
45, -124.55, 0.00, 0.00, 0.00, 0.064, -0.992, -0.352, 19:18:29.912, 1589044709912
46, -428.29, 0.00, 0.00, 0.00, 0.048, -1.008, -0.352, 19:18:29.912, 1589044709912
47, -291.69, 0.00, 0.00, 0.00, 0.048, -1.008, -0.352, 19:18:29.913, 1589044709913
48, 8.88, 0.00, 0.00, 0.00, 0.048, -1.008, -0.352, 19:18:29.913, 1589044709913
49, -122.58, 0.00, 0.00, 0.00, 0.048, -1.008, -0.352, 19:18:29.927, 1589044709927
50, -410.64, 0.00, 0.00, 0.00, 0.048, -1.008, -0.352, 19:18:29.927, 1589044709927
51, -285.63, 0.00, 0.00, 0.00, 0.048, -1.008, -0.352, 19:18:29.942, 1589044709942
52, 15.00, 0.00, 0.00, 0.00, 0.048, -1.008, -0.352, 19:18:29.942, 1589044709942
53, -118.89, 0.00, 0.00, 0.00, 0.048, -1.008, -0.352, 19:18:29.942, 1589044709942
54, -437.45, 0.00, 0.00, 0.00, 0.048, -1.008, -0.352, 19:18:29.942, 1589044709942
55, -296.06, 0.00, 0.00, 0.00, 0.048, -1.008, -0.352, 19:18:29.956, 1589044709956
56, 16.19, 0.00, 0.00, 0.00, 0.048, -1.008, -0.352, 19:18:29.956, 1589044709956
57, -122.00, 0.00, 0.00, 0.00, 0.048, -1.008, -0.352, 19:18:29.972, 1589044709972
58, -426.11, 0.00, 0.00, 0.00, 0.048, -1.008, -0.352, 19:18:29.972, 1589044709972
59, -305.69, 0.00, 0.00, 0.00, 0.048, -1.008, -0.352, 19:18:29.973, 1589044709973
60, 10.72, 0.00, 0.00, 0.00, 0.048, -1.008, -0.352, 19:18:29.973, 1589044709973
61, -113.75, 0.00, 0.00, 0.00, 0.048, -1.008, -0.352, 19:18:29.986, 1589044709986
62, -436.60, 0.00, 0.00, 0.00, 0.048, -1.008, -0.352, 19:18:29.986, 1589044709986
63, -306.13, 0.00, 0.00, 0.00, 0.048, -1.008, -0.352, 19:18:30.002, 1589044710002
64, 13.86, 0.00, 0.00, 0.00, 0.048, -1.008, -0.352, 19:18:30.002, 1589044710002
65, -111.39, 0.00, 0.00, 0.00, 0.048, -1.008, -0.352, 19:18:30.003, 1589044710003
66, -443.10, 0.00, 0.00, 0.00, 0.048, -0.992, -0.368, 19:18:30.003, 1589044710003
67, -301.21, 0.00, 0.00, 0.00, 0.048, -0.992, -0.368, 19:18:30.016, 1589044710016
68, 25.26, 0.00, 0.00, 0.00, 0.048, -0.992, -0.368, 19:18:30.016, 1589044710016
69, -118.74, 0.00, 0.00, 0.00, 0.048, -0.992, -0.368, 19:18:30.032, 1589044710032
70, -436.45, 0.00, 0.00, 0.00, 0.048, -0.992, -0.368, 19:18:30.032, 1589044710032
71, -294.79, 0.00, 0.00, 0.00, 0.048, -0.992, -0.368, 19:18:30.033, 1589044710033
72, 3.05, 0.00, 0.00, 0.00, 0.048, -0.992, -0.368, 19:18:30.033, 1589044710033
73, -128.65, 0.00, 0.00, 0.00, 0.048, -0.992, -0.368, 19:18:30.046, 1589044710046
74, -431.55, 0.00, 0.00, 0.00, 0.048, -0.992, -0.368, 19:18:30.046, 1589044710046
75, -295.98, 0.00, 0.00, 0.00, 0.048, -0.992, -0.368, 19:18:30.062, 1589044710062
76, 5.51, 0.00, 0.00, 0.00, 0.048, -0.992, -0.368, 19:18:30.062, 1589044710062
77, -129.42, 0.00, 0.00, 0.00, 0.048, -0.992, -0.368, 19:18:30.062, 1589044710062
78, -422.06, 0.00, 0.00, 0.00, 0.048, -0.992, -0.368, 19:18:30.062, 1589044710062
79, -312.72, 0.00, 0.00, 0.00, 0.048, -0.992, -0.368, 19:18:30.076, 1589044710076
80, 15.65, 0.00, 0.00, 0.00, 0.048, -0.992, -0.368, 19:18:30.076, 1589044710076
81, -130.17, 0.00, 0.00, 0.00, 0.048, -0.992, -0.368, 19:18:30.092, 1589044710092
82, -455.27, 0.00, 0.00, 0.00, 0.048, -0.992, -0.368, 19:18:30.092, 1589044710092
83, -304.03, 0.00, 0.00, 0.00, 0.048, -0.992, -0.368, 19:18:30.093, 1589044710093
84, -2.61, 0.00, 0.00, 0.00, 0.048, -0.992, -0.368, 19:18:30.093, 1589044710093
85, -136.09, 0.00, 0.00, 0.00, 0.048, -0.992, -0.368, 19:18:30.106, 1589044710106
86, -434.26, 0.00, 0.00, 0.00, 0.048, -0.992, -0.368, 19:18:30.106, 1589044710106
87, -306.20, 0.00, 0.00, 0.00, 0.048, -0.992, -0.368, 19:18:30.122, 1589044710122
88, 4.91, 0.00, 0.00, 0.00, 0.048, -0.992, -0.368, 19:18:30.122, 1589044710122
89, -110.66, 0.00, 0.00, 0.00, 0.048, -0.992, -0.368, 19:18:30.122, 1589044710122
90, -424.54, 0.00, 0.00, 0.00, 0.048, -0.992, -0.368, 19:18:30.122, 1589044710122
91, -313.31, 0.00, 0.00, 0.00, 0.048, -0.992, -0.368, 19:18:30.136, 1589044710136
92, 0.68, 0.00, 0.00, 0.00, 0.048, -0.992, -0.368, 19:18:30.136, 1589044710136
93, -119.16, 0.00, 0.00, 0.00, 0.048, -0.992, -0.368, 19:18:30.152, 1589044710152
94, -449.38, 0.00, 0.00, 0.00, 0.048, -0.992, -0.368, 19:18:30.152, 1589044710152
95, -315.72, 0.00, 0.00, 0.00, 0.048, -0.992, -0.368, 19:18:30.153, 1589044710153
96, 7.60, 0.00, 0.00, 0.00, 0.048, -0.992, -0.368, 19:18:30.153, 1589044710153
97, -117.75, 0.00, 0.00, 0.00, 0.048, -0.992, -0.368, 19:18:30.166, 1589044710166
98, -442.48, 0.00, 0.00, 0.00, 0.048, -0.992, -0.368, 19:18:30.166, 1589044710166
99, -303.98, 0.00, 0.00, 0.00, 0.048, -0.992, -0.368, 19:18:30.182, 1589044710182
100, 15.54, 0.00, 0.00, 0.00, 0.048, -0.992, -0.368, 19:18:30.182, 1589044710182
101, -129.38, 0.00, 0.00, 0.00, 0.048, -0.992, -0.368, 19:18:30.182, 1589044710182
102, -443.76, 0.00, 0.00, 0.00, 0.048, -0.992, -0.368, 19:18:30.182, 1589044710182
103, -299.92, 0.00, 0.00, 0.00, 0.048, -0.992, -0.368, 19:18:30.196, 1589044710196
104, 6.21, 0.00, 0.00, 0.00, 0.048, -0.992, -0.368, 19:18:30.196, 1589044710196
105, -133.32, 0.00, 0.00, 0.00, 0.048, -0.992, -0.368, 19:18:30.212, 1589044710212
106, -444.64, 0.00, 0.00, 0.00, 0.048, -0.992, -0.352, 19:18:30.212, 1589044710212
107, -292.14, 0.00, 0.00, 0.00, 0.048, -0.992, -0.352, 19:18:30.213, 1589044710213
108, 5.31, 0.00, 0.00, 0.00, 0.048, -0.992, -0.352, 19:18:30.213, 1589044710213
109, -129.55, 0.00, 0.00, 0.00, 0.048, -0.992, -0.352, 19:18:30.227, 1589044710227
110, -426.39, 0.00, 0.00, 0.00, 0.048, -0.992, -0.352, 19:18:30.227, 1589044710227
111, -306.74, 0.00, 0.00, 0.00, 0.048, -0.992, -0.352, 19:18:30.242, 1589044710242
112, -0.32, 0.00, 0.00, 0.00, 0.048, -0.992, -0.352, 19:18:30.242, 1589044710242
113, -127.66, 0.00, 0.00, 0.00, 0.048, -0.992, -0.352, 19:18:30.243, 1589044710243
114, -445.23, 0.00, 0.00, 0.00, 0.048, -0.992, -0.352, 19:18:30.243, 1589044710243
115, -306.74, 0.00, 0.00, 0.00, 0.048, -0.992, -0.352, 19:18:30.256, 1589044710256
116, -2.36, 0.00, 0.00, 0.00, 0.048, -0.992, -0.352, 19:18:30.256, 1589044710256
117, -132.23, 0.00, 0.00, 0.00, 0.048, -0.992, -0.352, 19:18:30.272, 1589044710272
118, -431.52, 0.00, 0.00, 0.00, 0.048, -0.992, -0.352, 19:18:30.272, 1589044710272
119, -315.12, 0.00, 0.00, 0.00, 0.048, -0.992, -0.352, 19:18:30.273, 1589044710273
120, -4.70, 0.00, 0.00, 0.00, 0.048, -0.992, -0.352, 19:18:30.273, 1589044710273
121, -122.85, 0.00, 0.00, 0.00, 0.048, -0.992, -0.352, 19:18:30.287, 1589044710287
122, -441.83, 0.00, 0.00, 0.00, 0.048, -0.992, -0.352, 19:18:30.287, 1589044710287
123, -304.94, 0.00, 0.00, 0.00, 0.048, -0.992, -0.352, 19:18:30.302, 1589044710302
124, 3.30, 0.00, 0.00, 0.00, 0.048, -0.992, -0.352, 19:18:30.302, 1589044710302
125, -115.98, 0.00, 0.00, 0.00, 0.048, -0.992, -0.352, 19:18:30.302, 1589044710302
126, -438.14, 0.00, 0.00, 0.00, 0.032, -0.992, -0.336, 19:18:30.302, 1589044710302
127, -307.12, 0.00, 0.00, 0.00, 0.032, -0.992, -0.336, 19:18:30.316, 1589044710316
128, 29.91, 0.00, 0.00, 0.00, 0.032, -0.992, -0.336, 19:18:30.316, 1589044710316
129, -119.40, 0.00, 0.00, 0.00, 0.032, -0.992, -0.336, 19:18:30.332, 1589044710332
130, -437.33, 0.00, 0.00, 0.00, 0.032, -0.992, -0.336, 19:18:30.332, 1589044710332
131, -284.64, 0.00, 0.00, 0.00, 0.032, -0.992, -0.336, 19:18:30.333, 1589044710333
132, 14.75, 0.00, 0.00, 0.00, 0.032, -0.992, -0.336, 19:18:30.333, 1589044710333
133, -93.31, 0.00, 0.00, 0.00, 0.032, -0.992, -0.336, 19:18:30.346, 1589044710346
134, -429.34, 0.00, 0.00, 0.00, 0.032, -0.992, -0.336, 19:18:30.346, 1589044710346
135, -302.25, 0.00, 0.00, 0.00, 0.032, -0.992, -0.336, 19:18:30.362, 1589044710362
136, 26.15, 0.00, 0.00, 0.00, 0.032, -0.992, -0.336, 19:18:30.362, 1589044710362
137, -112.82, 0.00, 0.00, 0.00, 0.032, -0.992, -0.336, 19:18:30.362, 1589044710362
138, -431.70, 0.00, 0.00, 0.00, 0.032, -0.992, -0.336, 19:18:30.362, 1589044710362
139, -303.48, 0.00, 0.00, 0.00, 0.032, -0.992, -0.336, 19:18:30.376, 1589044710376
140, 24.35, 0.00, 0.00, 0.00, 0.032, -0.992, -0.336, 19:18:30.376, 1589044710376
141, -125.92, 0.00, 0.00, 0.00, 0.032, -0.992, -0.336, 19:18:30.408, 1589044710408
142, -438.33, 0.00, 0.00, 0.00, 0.032, -0.992, -0.336, 19:18:30.408, 1589044710408
143, -291.79, 0.00, 0.00, 0.00, 0.032, -0.992, -0.336, 19:18:30.408, 1589044710408
144, 12.16, 0.00, 0.00, 0.00, 0.032, -0.992, -0.336, 19:18:30.408, 1589044710408
145, -117.89, 0.00, 0.00, 0.00, 0.032, -0.992, -0.336, 19:18:30.409, 1589044710409
146, -409.46, 0.00, 0.00, 0.00, 0.032, -1.008, -0.304, 19:18:30.409, 1589044710409
147, -294.58, 0.00, 0.00, 0.00, 0.032, -1.008, -0.304, 19:18:30.422, 1589044710422
148, 9.36, 0.00, 0.00, 0.00, 0.032, -1.008, -0.304, 19:18:30.422, 1589044710422
149, -118.37, 0.00, 0.00, 0.00, 0.032, -1.008, -0.304, 19:18:30.437, 1589044710437
150, -430.94, 0.00, 0.00, 0.00, 0.032, -1.008, -0.304, 19:18:30.437, 1589044710437
151, -311.50, 0.00, 0.00, 0.00, 0.032, -1.008, -0.304, 19:18:30.437, 1589044710437
152, 11.65, 0.00, 0.00, 0.00, 0.032, -1.008, -0.304, 19:18:30.437, 1589044710437
153, -109.46, 0.00, 0.00, 0.00, 0.032, -1.008, -0.304, 19:18:30.452, 1589044710452
154, -436.73, 0.00, 0.00, 0.00, 0.032, -1.008, -0.304, 19:18:30.452, 1589044710452
155, -275.41, 0.00, 0.00, 0.00, 0.032, -1.008, -0.304, 19:18:30.452, 1589044710452
156, 13.10, 0.00, 0.00, 0.00, 0.032, -1.008, -0.304, 19:18:30.452, 1589044710452
157, -125.02, 0.00, 0.00, 0.00, 0.032, -1.008, -0.304, 19:18:30.466, 1589044710466
158, -424.36, 0.00, 0.00, 0.00, 0.032, -1.008, -0.304, 19:18:30.466, 1589044710466
159, -301.35, 0.00, 0.00, 0.00, 0.032, -1.008, -0.304, 19:18:30.482, 1589044710482
160, 8.69, 0.00, 0.00, 0.00, 0.032, -1.008, -0.304, 19:18:30.482, 1589044710482
161, -113.00, 0.00, 0.00, 0.00, 0.032, -1.008, -0.304, 19:18:30.482, 1589044710482
162, -423.25, 0.00, 0.00, 0.00, 0.032, -1.008, -0.304, 19:18:30.482, 1589044710482
163, -298.28, 0.00, 0.00, 0.00, 0.032, -1.008, -0.304, 19:18:30.496, 1589044710496
164, 11.50, 0.00, 0.00, 0.00, 0.032, -1.008, -0.304, 19:18:30.496, 1589044710496
165, -112.90, 0.00, 0.00, 0.00, 0.032, -1.008, -0.304, 19:18:30.512, 1589044710512
166, -426.45, 0.00, 0.00, 0.00, 0.032, -1.008, -0.272, 19:18:30.512, 1589044710512
167, -290.41, 0.00, 0.00, 0.00, 0.032, -1.008, -0.272, 19:18:30.512, 1589044710512
168, 2.80, 0.00, 0.00, 0.00, 0.032, -1.008, -0.272, 19:18:30.512, 1589044710512
169, -126.97, 0.00, 0.00, 0.00, 0.032, -1.008, -0.272, 19:18:30.526, 1589044710526
170, -418.85, 0.00, 0.00, 0.00, 0.032, -1.008, -0.272, 19:18:30.526, 1589044710526
171, -311.48, 0.00, 0.00, 0.00, 0.032, -1.008, -0.272, 19:18:30.542, 1589044710542
172, 6.37, 0.00, 0.00, 0.00, 0.032, -1.008, -0.272, 19:18:30.542, 1589044710542
173, -108.60, 0.00, 0.00, 0.00, 0.032, -1.008, -0.272, 19:18:30.544, 1589044710544
174, -441.87, 0.00, 0.00, 0.00, 0.032, -1.008, -0.272, 19:18:30.544, 1589044710544
175, -318.72, 0.00, 0.00, 0.00, 0.032, -1.008, -0.272, 19:18:30.556, 1589044710556
176, 7.55, 0.00, 0.00, 0.00, 0.032, -1.008, -0.272, 19:18:30.556, 1589044710556
177, -117.45, 0.00, 0.00, 0.00, 0.032, -1.008, -0.272, 19:18:30.572, 1589044710572
178, -436.90, 0.00, 0.00, 0.00, 0.032, -1.008, -0.272, 19:18:30.572, 1589044710572
179, -296.13, 0.00, 0.00, 0.00, 0.032, -1.008, -0.272, 19:18:30.572, 1589044710572
180, -4.77, 0.00, 0.00, 0.00, 0.032, -1.008, -0.272, 19:18:30.572, 1589044710572
181, -133.10, 0.00, 0.00, 0.00, 0.032, -1.008, -0.272, 19:18:30.586, 1589044710586
182, -424.62, 0.00, 0.00, 0.00, 0.032, -1.008, -0.272, 19:18:30.586, 1589044710586
183, -315.27, 0.00, 0.00, 0.00, 0.032, -1.008, -0.272, 19:18:30.602, 1589044710602
184, 4.47, 0.00, 0.00, 0.00, 0.032, -1.008, -0.272, 19:18:30.602, 1589044710602
185, -115.15, 0.00, 0.00, 0.00, 0.032, -1.008, -0.272, 19:18:30.603, 1589044710603
186, -446.15, 0.00, 0.00, 0.00, 0.032, -1.024, -0.208, 19:18:30.603, 1589044710603
187, -314.08, 0.00, 0.00, 0.00, 0.032, -1.024, -0.208, 19:18:30.616, 1589044710616
188, 12.62, 0.00, 0.00, 0.00, 0.032, -1.024, -0.208, 19:18:30.616, 1589044710616
189, -117.79, 0.00, 0.00, 0.00, 0.032, -1.024, -0.208, 19:18:30.632, 1589044710632
190, -434.27, 0.00, 0.00, 0.00, 0.032, -1.024, -0.208, 19:18:30.632, 1589044710632
191, -308.26, 0.00, 0.00, 0.00, 0.032, -1.024, -0.208, 19:18:30.632, 1589044710632
192, 5.35, 0.00, 0.00, 0.00, 0.032, -1.024, -0.208, 19:18:30.632, 1589044710632
193, -123.07, 0.00, 0.00, 0.00, 0.032, -1.024, -0.208, 19:18:30.646, 1589044710646
194, -435.67, 0.00, 0.00, 0.00, 0.032, -1.024, -0.208, 19:18:30.646, 1589044710646
195, -306.14, 0.00, 0.00, 0.00, 0.032, -1.024, -0.208, 19:18:30.662, 1589044710662
196, 5.05, 0.00, 0.00, 0.00, 0.032, -1.024, -0.208, 19:18:30.662, 1589044710662
197, -112.33, 0.00, 0.00, 0.00, 0.032, -1.024, -0.208, 19:18:30.663, 1589044710663
198, -432.86, 0.00, 0.00, 0.00, 0.032, -1.024, -0.208, 19:18:30.663, 1589044710663
199, -317.41, 0.00, 0.00, 0.00, 0.032, -1.024, -0.208, 19:18:30.677, 1589044710677
200, 10.68, 0.00, 0.00, 0.00, 0.032, -1.024, -0.208, 19:18:30.677, 1589044710677
0, -116.32, 0.00, 0.00, 0.00, 0.032, -1.024, -0.208, 19:18:30.678, 1589044710678
1, -432.68, 0.00, 0.00, 0.00, 0.032, -1.024, -0.208, 19:18:30.691, 1589044710691
2, -304.64, 0.00, 0.00, 0.00, 0.032, -1.024, -0.208, 19:18:30.691, 1589044710691
3, 8.76, 0.00, 0.00, 0.00, 0.032, -1.024, -0.208, 19:18:30.707, 1589044710707
4, -117.44, 0.00, 0.00, 0.00, 0.032, -1.024, -0.208, 19:18:30.707, 1589044710707
5, -436.17, 0.00, 0.00, 0.00, 0.032, -1.024, -0.208, 19:18:30.707, 1589044710707
6, -304.69, 0.00, 0.00, 0.00, 0.032, -1.040, -0.176, 19:18:30.707, 1589044710707
7, 24.31, 0.00, 0.00, 0.00, 0.032, -1.040, -0.176, 19:18:30.738, 1589044710738
8, -112.68, 0.00, 0.00, 0.00, 0.032, -1.040, -0.176, 19:18:30.738, 1589044710738
9, -436.46, 0.00, 0.00, 0.00, 0.032, -1.040, -0.176, 19:18:30.739, 1589044710739
10, -290.84, 0.00, 0.00, 0.00, 0.032, -1.040, -0.176, 19:18:30.739, 1589044710739
11, 18.68, 0.00, 0.00, 0.00, 0.032, -1.040, -0.176, 19:18:30.739, 1589044710739
12, -111.99, 0.00, 0.00, 0.00, 0.032, -1.040, -0.176, 19:18:30.739, 1589044710739
13, -434.36, 0.00, 0.00, 0.00, 0.032, -1.040, -0.176, 19:18:30.751, 1589044710751
14, -303.27, 0.00, 0.00, 0.00, 0.032, -1.040, -0.176, 19:18:30.751, 1589044710751
15, 13.37, 0.00, 0.00, 0.00, 0.032, -1.040, -0.176, 19:18:30.767, 1589044710767
16, -116.73, 0.00, 0.00, 0.00, 0.032, -1.040, -0.176, 19:18:30.767, 1589044710767
17, -415.04, 0.00, 0.00, 0.00, 0.032, -1.040, -0.176, 19:18:30.782, 1589044710782
18, -306.18, 0.00, 0.00, 0.00, 0.032, -1.040, -0.176, 19:18:30.782, 1589044710782
19, 26.46, 0.00, 0.00, 0.00, 0.032, -1.040, -0.176, 19:18:30.783, 1589044710783
20, -111.93, 0.00, 0.00, 0.00, 0.032, -1.040, -0.176, 19:18:30.783, 1589044710783
21, -438.42, 0.00, 0.00, 0.00, 0.032, -1.040, -0.176, 19:18:30.797, 1589044710797
22, -306.77, 0.00, 0.00, 0.00, 0.032, -1.040, -0.176, 19:18:30.797, 1589044710797
23, 27.10, 0.00, 0.00, 0.00, 0.032, -1.040, -0.176, 19:18:30.797, 1589044710797
24, -121.23, 0.00, 0.00, 0.00, 0.032, -1.040, -0.176, 19:18:30.797, 1589044710797
25, -440.93, 0.00, 0.00, 0.00, 0.032, -1.040, -0.176, 19:18:30.811, 1589044710811
26, -301.10, 0.00, 0.00, 0.00, 0.016, -1.024, -0.160, 19:18:30.811, 1589044710811
27, 9.05, 0.00, 0.00, 0.00, 0.016, -1.024, -0.160, 19:18:30.827, 1589044710827
28, -123.73, 0.00, 0.00, 0.00, 0.016, -1.024, -0.160, 19:18:30.827, 1589044710827
29, -437.24, 0.00, 0.00, 0.00, 0.016, -1.024, -0.160, 19:18:30.828, 1589044710828
30, -303.57, 0.00, 0.00, 0.00, 0.016, -1.024, -0.160, 19:18:30.828, 1589044710828
31, 3.55, 0.00, 0.00, 0.00, 0.016, -1.024, -0.160, 19:18:30.841, 1589044710841
32, -99.79, 0.00, 0.00, 0.00, 0.016, -1.024, -0.160, 19:18:30.841, 1589044710841
33, -437.10, 0.00, 0.00, 0.00, 0.016, -1.024, -0.160, 19:18:30.857, 1589044710857
34, -306.31, 0.00, 0.00, 0.00, 0.016, -1.024, -0.160, 19:18:30.857, 1589044710857
35, 24.66, 0.00, 0.00, 0.00, 0.016, -1.024, -0.160, 19:18:30.857, 1589044710857
36, -114.83, 0.00, 0.00, 0.00, 0.016, -1.024, -0.160, 19:18:30.857, 1589044710857
37, -442.41, 0.00, 0.00, 0.00, 0.016, -1.024, -0.160, 19:18:30.888, 1589044710888
38, -309.18, 0.00, 0.00, 0.00, 0.016, -1.024, -0.160, 19:18:30.888, 1589044710888
39, 12.36, 0.00, 0.00, 0.00, 0.016, -1.024, -0.160, 19:18:30.888, 1589044710888
40, -119.91, 0.00, 0.00, 0.00, 0.016, -1.024, -0.160, 19:18:30.888, 1589044710888
41, -430.32, 0.00, 0.00, 0.00, 0.016, -1.024, -0.160, 19:18:30.889, 1589044710889
42, -297.23, 0.00, 0.00, 0.00, 0.016, -1.024, -0.160, 19:18:30.889, 1589044710889
43, 10.17, 0.00, 0.00, 0.00, 0.016, -1.024, -0.160, 19:18:30.901, 1589044710901
44, -105.88, 0.00, 0.00, 0.00, 0.016, -1.024, -0.160, 19:18:30.901, 1589044710901
45, -430.25, 0.00, 0.00, 0.00, 0.016, -1.024, -0.160, 19:18:30.917, 1589044710917
46, -314.36, 0.00, 0.00, 0.00, 0.016, -1.040, -0.144, 19:18:30.917, 1589044710917
47, 25.35, 0.00, 0.00, 0.00, 0.016, -1.040, -0.144, 19:18:30.917, 1589044710917
48, -118.61, 0.00, 0.00, 0.00, 0.016, -1.040, -0.144, 19:18:30.917, 1589044710917
49, -446.59, 0.00, 0.00, 0.00, 0.016, -1.040, -0.144, 19:18:30.931, 1589044710931
50, -304.47, 0.00, 0.00, 0.00, 0.016, -1.040, -0.144, 19:18:30.931, 1589044710931
51, 3.29, 0.00, 0.00, 0.00, 0.016, -1.040, -0.144, 19:18:30.947, 1589044710947
52, -114.50, 0.00, 0.00, 0.00, 0.016, -1.040, -0.144, 19:18:30.947, 1589044710947
53, -444.68, 0.00, 0.00, 0.00, 0.016, -1.040, -0.144, 19:18:30.947, 1589044710947
54, -318.44, 0.00, 0.00, 0.00, 0.016, -1.040, -0.144, 19:18:30.947, 1589044710947
55, 15.15, 0.00, 0.00, 0.00, 0.016, -1.040, -0.144, 19:18:30.961, 1589044710961
56, -118.96, 0.00, 0.00, 0.00, 0.016, -1.040, -0.144, 19:18:30.961, 1589044710961
57, -439.49, 0.00, 0.00, 0.00, 0.016, -1.040, -0.144, 19:18:30.978, 1589044710978
58, -310.91, 0.00, 0.00, 0.00, 0.016, -1.040, -0.144, 19:18:30.978, 1589044710978
59, 23.30, 0.00, 0.00, 0.00, 0.016, -1.040, -0.144, 19:18:30.978, 1589044710978
60, -120.24, 0.00, 0.00, 0.00, 0.016, -1.040, -0.144, 19:18:30.978, 1589044710978
61, -444.95, 0.00, 0.00, 0.00, 0.016, -1.040, -0.144, 19:18:30.991, 1589044710991
62, -299.43, 0.00, 0.00, 0.00, 0.016, -1.040, -0.144, 19:18:30.991, 1589044710991
63, 15.98, 0.00, 0.00, 0.00, 0.016, -1.040, -0.144, 19:18:31.007, 1589044711007
64, -113.85, 0.00, 0.00, 0.00, 0.016, -1.040, -0.144, 19:18:31.007, 1589044711007
65, -438.71, 0.00, 0.00, 0.00, 0.016, -1.040, -0.144, 19:18:31.008, 1589044711008
66, -301.37, 0.00, 0.00, 0.00, 0.016, -1.040, -0.160, 19:18:31.008, 1589044711008
67, 16.79, 0.00, 0.00, 0.00, 0.016, -1.040, -0.160, 19:18:31.021, 1589044711021
68, -115.13, 0.00, 0.00, 0.00, 0.016, -1.040, -0.160, 19:18:31.021, 1589044711021
69, -432.21, 0.00, 0.00, 0.00, 0.016, -1.040, -0.160, 19:18:31.037, 1589044711037
70, -292.47, 0.00, 0.00, 0.00, 0.016, -1.040, -0.160, 19:18:31.037, 1589044711037
71, 16.24, 0.00, 0.00, 0.00, 0.016, -1.040, -0.160, 19:18:31.037, 1589044711037
72, -107.66, 0.00, 0.00, 0.00, 0.016, -1.040, -0.160, 19:18:31.037, 1589044711037
73, -444.66, 0.00, 0.00, 0.00, 0.016, -1.040, -0.160, 19:18:31.051, 1589044711051
74, -299.48, 0.00, 0.00, 0.00, 0.016, -1.040, -0.160, 19:18:31.051, 1589044711051
75, 20.62, 0.00, 0.00, 0.00, 0.016, -1.040, -0.160, 19:18:31.083, 1589044711083
76, -102.53, 0.00, 0.00, 0.00, 0.016, -1.040, -0.160, 19:18:31.083, 1589044711083
77, -426.55, 0.00, 0.00, 0.00, 0.016, -1.040, -0.160, 19:18:31.083, 1589044711083
78, -300.33, 0.00, 0.00, 0.00, 0.016, -1.040, -0.160, 19:18:31.083, 1589044711083
79, 32.39, 0.00, 0.00, 0.00, 0.016, -1.040, -0.160, 19:18:31.084, 1589044711084
80, -99.50, 0.00, 0.00, 0.00, 0.016, -1.040, -0.160, 19:18:31.084, 1589044711084
81, -434.27, 0.00, 0.00, 0.00, 0.016, -1.040, -0.160, 19:18:31.112, 1589044711112
82, -291.14, 0.00, 0.00, 0.00, 0.016, -1.040, -0.160, 19:18:31.112, 1589044711112
83, 18.31, 0.00, 0.00, 0.00, 0.016, -1.040, -0.160, 19:18:31.113, 1589044711113
84, -105.23, 0.00, 0.00, 0.00, 0.016, -1.040, -0.160, 19:18:31.113, 1589044711113
85, -418.52, 0.00, 0.00, 0.00, 0.016, -1.040, -0.160, 19:18:31.114, 1589044711114
86, -302.20, 0.00, 0.00, 0.00, 0.016, -1.040, -0.160, 19:18:31.114, 1589044711114
87, 15.14, 0.00, 0.00, 0.00, 0.016, -1.040, -0.160, 19:18:31.128, 1589044711128
88, -109.20, 0.00, 0.00, 0.00, 0.016, -1.040, -0.160, 19:18:31.128, 1589044711128
89, -417.43, 0.00, 0.00, 0.00, 0.016, -1.040, -0.160, 19:18:31.128, 1589044711128
90, -305.59, 0.00, 0.00, 0.00, 0.016, -1.040, -0.160, 19:18:31.128, 1589044711128
91, 14.26, 0.00, 0.00, 0.00, 0.016, -1.040, -0.160, 19:18:31.141, 1589044711141
92, -94.60, 0.00, 0.00, 0.00, 0.016, -1.040, -0.160, 19:18:31.141, 1589044711141
93, -420.17, 0.00, 0.00, 0.00, 0.016, -1.040, -0.160, 19:18:31.157, 1589044711157
94, -313.51, 0.00, 0.00, 0.00, 0.016, -1.040, -0.160, 19:18:31.157, 1589044711157
95, 13.32, 0.00, 0.00, 0.00, 0.016, -1.040, -0.160, 19:18:31.157, 1589044711157
96, -100.85, 0.00, 0.00, 0.00, 0.016, -1.040, -0.160, 19:18:31.157, 1589044711157
97, -433.79, 0.00, 0.00, 0.00, 0.016, -1.040, -0.160, 19:18:31.188, 1589044711188
98, -301.76, 0.00, 0.00, 0.00, 0.016, -1.040, -0.160, 19:18:31.188, 1589044711188
99, 17.09, 0.00, 0.00, 0.00, 0.016, -1.040, -0.160, 19:18:31.189, 1589044711189
100, -95.79, 0.00, 0.00, 0.00, 0.016, -1.040, -0.160, 19:18:31.189, 1589044711189
101, -428.92, 0.00, 0.00, 0.00, 0.016, -1.040, -0.160, 19:18:31.189, 1589044711189
102, -307.37, 0.00, 0.00, 0.00, 0.016, -1.040, -0.160, 19:18:31.189, 1589044711189
103, 25.18, 0.00, 0.00, 0.00, 0.016, -1.040, -0.160, 19:18:31.201, 1589044711201
104, -103.12, 0.00, 0.00, 0.00, 0.016, -1.040, -0.160, 19:18:31.201, 1589044711201
105, -439.95, 0.00, 0.00, 0.00, 0.016, -1.040, -0.160, 19:18:31.217, 1589044711217
106, -300.28, 0.00, 0.00, 0.00, 0.016, -1.040, -0.160, 19:18:31.217, 1589044711217
107, 14.61, 0.00, 0.00, 0.00, 0.016, -1.040, -0.160, 19:18:31.217, 1589044711217
108, -112.18, 0.00, 0.00, 0.00, 0.016, -1.040, -0.160, 19:18:31.217, 1589044711217
109, -444.91, 0.00, 0.00, 0.00, 0.016, -1.040, -0.160, 19:18:31.231, 1589044711231
110, -312.16, 0.00, 0.00, 0.00, 0.016, -1.040, -0.160, 19:18:31.231, 1589044711231
111, 4.65, 0.00, 0.00, 0.00, 0.016, -1.040, -0.160, 19:18:31.247, 1589044711247
112, -114.69, 0.00, 0.00, 0.00, 0.016, -1.040, -0.160, 19:18:31.247, 1589044711247
113, -422.43, 0.00, 0.00, 0.00, 0.016, -1.040, -0.160, 19:18:31.248, 1589044711248
114, -313.50, 0.00, 0.00, 0.00, 0.016, -1.040, -0.160, 19:18:31.248, 1589044711248
115, 1.91, 0.00, 0.00, 0.00, 0.016, -1.040, -0.160, 19:18:31.261, 1589044711261
116, -106.55, 0.00, 0.00, 0.00, 0.016, -1.040, -0.160, 19:18:31.261, 1589044711261
117, -445.86, 0.00, 0.00, 0.00, 0.016, -1.040, -0.160, 19:18:31.277, 1589044711277
118, -328.57, 0.00, 0.00, 0.00, 0.016, -1.040, -0.160, 19:18:31.277, 1589044711277
119, 4.02, 0.00, 0.00, 0.00, 0.016, -1.040, -0.160, 19:18:31.277, 1589044711277
120, -113.28, 0.00, 0.00, 0.00, 0.016, -1.040, -0.160, 19:18:31.277, 1589044711277
121, -449.54, 0.00, 0.00, 0.00, 0.016, -1.040, -0.160, 19:18:31.291, 1589044711291
122, -318.28, 0.00, 0.00, 0.00, 0.016, -1.040, -0.160, 19:18:31.291, 1589044711291
123, 16.60, 0.00, 0.00, 0.00, 0.016, -1.040, -0.160, 19:18:31.307, 1589044711307
124, -116.32, 0.00, 0.00, 0.00, 0.016, -1.040, -0.160, 19:18:31.307, 1589044711307
125, -444.82, 0.00, 0.00, 0.00, 0.016, -1.040, -0.160, 19:18:31.307, 1589044711307
126, -313.12, 0.00, 0.00, 0.00, 0.032, -1.040, -0.176, 19:18:31.307, 1589044711307
127, -0.67, 0.00, 0.00, 0.00, 0.032, -1.040, -0.176, 19:18:31.321, 1589044711321
128, -110.13, 0.00, 0.00, 0.00, 0.032, -1.040, -0.176, 19:18:31.321, 1589044711321
129, -432.81, 0.00, 0.00, 0.00, 0.032, -1.040, -0.176, 19:18:31.338, 1589044711338
130, -301.98, 0.00, 0.00, 0.00, 0.032, -1.040, -0.176, 19:18:31.338, 1589044711338
131, 13.74, 0.00, 0.00, 0.00, 0.032, -1.040, -0.176, 19:18:31.338, 1589044711338
132, -105.84, 0.00, 0.00, 0.00, 0.032, -1.040, -0.176, 19:18:31.338, 1589044711338
133, -419.05, 0.00, 0.00, 0.00, 0.032, -1.040, -0.176, 19:18:31.351, 1589044711351
134, -309.36, 0.00, 0.00, 0.00, 0.032, -1.040, -0.176, 19:18:31.351, 1589044711351
135, 9.87, 0.00, 0.00, 0.00, 0.032, -1.040, -0.176, 19:18:31.367, 1589044711367
136, -107.51, 0.00, 0.00, 0.00, 0.032, -1.040, -0.176, 19:18:31.367, 1589044711367
137, -428.79, 0.00, 0.00, 0.00, 0.032, -1.040, -0.176, 19:18:31.368, 1589044711368
138, -296.53, 0.00, 0.00, 0.00, 0.032, -1.040, -0.176, 19:18:31.368, 1589044711368
139, 2.92, 0.00, 0.00, 0.00, 0.032, -1.040, -0.176, 19:18:31.381, 1589044711381
140, -105.75, 0.00, 0.00, 0.00, 0.032, -1.040, -0.176, 19:18:31.381, 1589044711381
141, -424.27, 0.00, 0.00, 0.00, 0.032, -1.040, -0.176, 19:18:31.397, 1589044711397
142, -310.23, 0.00, 0.00, 0.00, 0.032, -1.040, -0.176, 19:18:31.397, 1589044711397
143, 10.13, 0.00, 0.00, 0.00, 0.032, -1.040, -0.176, 19:18:31.397, 1589044711397
144, -113.29, 0.00, 0.00, 0.00, 0.032, -1.040, -0.176, 19:18:31.397, 1589044711397
145, -442.12, 0.00, 0.00, 0.00, 0.032, -1.040, -0.176, 19:18:31.411, 1589044711411
146, -303.46, 0.00, 0.00, 0.00, 0.016, -1.040, -0.176, 19:18:31.411, 1589044711411
147, 4.49, 0.00, 0.00, 0.00, 0.016, -1.040, -0.176, 19:18:31.443, 1589044711443
148, -116.23, 0.00, 0.00, 0.00, 0.016, -1.040, -0.176, 19:18:31.443, 1589044711443
149, -421.00, 0.00, 0.00, 0.00, 0.016, -1.040, -0.176, 19:18:31.444, 1589044711444
150, -321.35, 0.00, 0.00, 0.00, 0.016, -1.040, -0.176, 19:18:31.444, 1589044711444
151, 3.16, 0.00, 0.00, 0.00, 0.016, -1.040, -0.176, 19:18:31.444, 1589044711444
152, -103.75, 0.00, 0.00, 0.00, 0.016, -1.040, -0.176, 19:18:31.444, 1589044711444
153, -448.47, 0.00, 0.00, 0.00, 0.016, -1.040, -0.176, 19:18:31.457, 1589044711457
154, -309.59, 0.00, 0.00, 0.00, 0.016, -1.040, -0.176, 19:18:31.457, 1589044711457
155, 3.12, 0.00, 0.00, 0.00, 0.016, -1.040, -0.176, 19:18:31.457, 1589044711457
156, -115.46, 0.00, 0.00, 0.00, 0.016, -1.040, -0.176, 19:18:31.457, 1589044711457
157, -429.70, 0.00, 0.00, 0.00, 0.016, -1.040, -0.176, 19:18:31.471, 1589044711471
158, -314.61, 0.00, 0.00, 0.00, 0.016, -1.040, -0.176, 19:18:31.471, 1589044711471
159, 6.10, 0.00, 0.00, 0.00, 0.016, -1.040, -0.176, 19:18:31.487, 1589044711487
160, -102.91, 0.00, 0.00, 0.00, 0.016, -1.040, -0.176, 19:18:31.487, 1589044711487
161, -446.82, 0.00, 0.00, 0.00, 0.016, -1.040, -0.176, 19:18:31.488, 1589044711488
162, -316.72, 0.00, 0.00, 0.00, 0.016, -1.040, -0.176, 19:18:31.488, 1589044711488
163, 2.18, 0.00, 0.00, 0.00, 0.016, -1.040, -0.176, 19:18:31.501, 1589044711501
164, -95.66, 0.00, 0.00, 0.00, 0.016, -1.040, -0.176, 19:18:31.501, 1589044711501
165, -422.69, 0.00, 0.00, 0.00, 0.016, -1.040, -0.176, 19:18:31.517, 1589044711517
166, -317.45, 0.00, 0.00, 0.00, 0.016, -1.040, -0.176, 19:18:31.517, 1589044711517
167, -2.27, 0.00, 0.00, 0.00, 0.016, -1.040, -0.176, 19:18:31.517, 1589044711517
168, -105.03, 0.00, 0.00, 0.00, 0.016, -1.040, -0.176, 19:18:31.517, 1589044711517
169, -446.28, 0.00, 0.00, 0.00, 0.016, -1.040, -0.176, 19:18:31.531, 1589044711531
170, -318.56, 0.00, 0.00, 0.00, 0.016, -1.040, -0.176, 19:18:31.531, 1589044711531
171, 12.37, 0.00, 0.00, 0.00, 0.016, -1.040, -0.176, 19:18:31.548, 1589044711548
172, -117.94, 0.00, 0.00, 0.00, 0.016, -1.040, -0.176, 19:18:31.548, 1589044711548
173, -454.37, 0.00, 0.00, 0.00, 0.016, -1.040, -0.176, 19:18:31.548, 1589044711548
174, -319.23, 0.00, 0.00, 0.00, 0.016, -1.040, -0.176, 19:18:31.548, 1589044711548
175, -8.95, 0.00, 0.00, 0.00, 0.016, -1.040, -0.176, 19:18:31.561, 1589044711561
176, -119.26, 0.00, 0.00, 0.00, 0.016, -1.040, -0.176, 19:18:31.561, 1589044711561
177, -444.37, 0.00, 0.00, 0.00, 0.016, -1.040, -0.176, 19:18:31.577, 1589044711577
178, -309.12, 0.00, 0.00, 0.00, 0.016, -1.040, -0.176, 19:18:31.577, 1589044711577
179, 2.61, 0.00, 0.00, 0.00, 0.016, -1.040, -0.176, 19:18:31.578, 1589044711578
180, -116.95, 0.00, 0.00, 0.00, 0.016, -1.040, -0.176, 19:18:31.578, 1589044711578
181, -431.31, 0.00, 0.00, 0.00, 0.016, -1.040, -0.176, 19:18:31.592, 1589044711592
182, -316.33, 0.00, 0.00, 0.00, 0.016, -1.040, -0.176, 19:18:31.592, 1589044711592
183, -1.90, 0.00, 0.00, 0.00, 0.016, -1.040, -0.176, 19:18:31.607, 1589044711607
184, -118.85, 0.00, 0.00, 0.00, 0.016, -1.040, -0.176, 19:18:31.607, 1589044711607
185, -450.16, 0.00, 0.00, 0.00, 0.016, -1.040, -0.176, 19:18:31.608, 1589044711608
186, -313.00, 0.00, 0.00, 0.00, 0.016, -1.024, -0.176, 19:18:31.608, 1589044711608
187, -3.58, 0.00, 0.00, 0.00, 0.016, -1.024, -0.176, 19:18:31.622, 1589044711622
188, -119.92, 0.00, 0.00, 0.00, 0.016, -1.024, -0.176, 19:18:31.622, 1589044711622
189, -436.89, 0.00, 0.00, 0.00, 0.016, -1.024, -0.176, 19:18:31.637, 1589044711637
190, -334.46, 0.00, 0.00, 0.00, 0.016, -1.024, -0.176, 19:18:31.637, 1589044711637
191, -1.56, 0.00, 0.00, 0.00, 0.016, -1.024, -0.176, 19:18:31.637, 1589044711637
192, -103.50, 0.00, 0.00, 0.00, 0.016, -1.024, -0.176, 19:18:31.637, 1589044711637
193, -447.04, 0.00, 0.00, 0.00, 0.016, -1.024, -0.176, 19:18:31.651, 1589044711651
194, -323.69, 0.00, 0.00, 0.00, 0.016, -1.024, -0.176, 19:18:31.651, 1589044711651
195, 4.50, 0.00, 0.00, 0.00, 0.016, -1.024, -0.176, 19:18:31.668, 1589044711668
196, -122.44, 0.00, 0.00, 0.00, 0.016, -1.024, -0.176, 19:18:31.668, 1589044711668
197, -454.36, 0.00, 0.00, 0.00, 0.016, -1.024, -0.176, 19:18:31.668, 1589044711668
198, -329.64, 0.00, 0.00, 0.00, 0.016, -1.024, -0.176, 19:18:31.668, 1589044711668
199, 14.24, 0.00, 0.00, 0.00, 0.016, -1.024, -0.176, 19:18:31.682, 1589044711682
200, -115.79, 0.00, 0.00, 0.00, 0.016, -1.024, -0.176, 19:18:31.682, 1589044711682
0, -443.95, 0.00, 0.00, 0.00, 0.016, -1.024, -0.176, 19:18:31.682, 1589044711682
1, -315.50, 0.00, 0.00, 0.00, 0.016, -1.024, -0.176, 19:18:31.696, 1589044711696
2, 10.56, 0.00, 0.00, 0.00, 0.016, -1.024, -0.176, 19:18:31.696, 1589044711696
3, -110.60, 0.00, 0.00, 0.00, 0.016, -1.024, -0.176, 19:18:31.712, 1589044711712
4, -445.57, 0.00, 0.00, 0.00, 0.016, -1.024, -0.176, 19:18:31.712, 1589044711712
5, -317.23, 0.00, 0.00, 0.00, 0.016, -1.024, -0.176, 19:18:31.713, 1589044711713
6, 9.16, 0.00, 0.00, 0.00, 0.016, -1.024, -0.176, 19:18:31.713, 1589044711713
7, -117.37, 0.00, 0.00, 0.00, 0.016, -1.024, -0.176, 19:18:31.726, 1589044711726
8, -448.31, 0.00, 0.00, 0.00, 0.016, -1.024, -0.176, 19:18:31.726, 1589044711726
9, -313.61, 0.00, 0.00, 0.00, 0.016, -1.024, -0.176, 19:18:31.742, 1589044711742
10, -9.43, 0.00, 0.00, 0.00, 0.016, -1.024, -0.176, 19:18:31.742, 1589044711742
11, -115.34, 0.00, 0.00, 0.00, 0.016, -1.024, -0.176, 19:18:31.743, 1589044711743
12, -422.36, 0.00, 0.00, 0.00, 0.016, -1.024, -0.176, 19:18:31.743, 1589044711743
13, -336.09, 0.00, 0.00, 0.00, 0.016, -1.024, -0.176, 19:18:31.756, 1589044711756
14, -6.69, 0.00, 0.00, 0.00, 0.016, -1.024, -0.176, 19:18:31.756, 1589044711756
15, -116.07, 0.00, 0.00, 0.00, 0.016, -1.024, -0.176, 19:18:31.772, 1589044711772
16, -453.62, 0.00, 0.00, 0.00, 0.016, -1.024, -0.176, 19:18:31.772, 1589044711772
17, -321.81, 0.00, 0.00, 0.00, 0.016, -1.024, -0.176, 19:18:31.772, 1589044711772
18, 1.52, 0.00, 0.00, 0.00, 0.016, -1.024, -0.176, 19:18:31.772, 1589044711772
19, -102.62, 0.00, 0.00, 0.00, 0.016, -1.024, -0.176, 19:18:31.787, 1589044711787
20, -447.19, 0.00, 0.00, 0.00, 0.016, -1.024, -0.176, 19:18:31.787, 1589044711787
21, -329.39, 0.00, 0.00, 0.00, 0.016, -1.024, -0.176, 19:18:31.802, 1589044711802
22, 17.83, 0.00, 0.00, 0.00, 0.016, -1.024, -0.176, 19:18:31.802, 1589044711802
23, -107.89, 0.00, 0.00, 0.00, 0.016, -1.024, -0.176, 19:18:31.802, 1589044711802
24, -444.66, 0.00, 0.00, 0.00, 0.016, -1.024, -0.176, 19:18:31.802, 1589044711802
25, -312.23, 0.00, 0.00, 0.00, 0.016, -1.024, -0.176, 19:18:31.816, 1589044711816
26, 5.74, 0.00, 0.00, 0.00, 0.016, -1.024, -0.192, 19:18:31.816, 1589044711816
27, -104.28, 0.00, 0.00, 0.00, 0.016, -1.024, -0.192, 19:18:31.847, 1589044711847
28, -436.36, 0.00, 0.00, 0.00, 0.016, -1.024, -0.192, 19:18:31.847, 1589044711847
29, -304.51, 0.00, 0.00, 0.00, 0.016, -1.024, -0.192, 19:18:31.848, 1589044711848
30, 11.69, 0.00, 0.00, 0.00, 0.016, -1.024, -0.192, 19:18:31.848, 1589044711848
31, -99.20, 0.00, 0.00, 0.00, 0.016, -1.024, -0.192, 19:18:31.849, 1589044711849
32, -411.24, 0.00, 0.00, 0.00, 0.016, -1.024, -0.192, 19:18:31.849, 1589044711849
33, -311.75, 0.00, 0.00, 0.00, 0.016, -1.024, -0.192, 19:18:31.862, 1589044711862
34, 16.13, 0.00, 0.00, 0.00, 0.016, -1.024, -0.192, 19:18:31.862, 1589044711862
35, -84.57, 0.00, 0.00, 0.00, 0.016, -1.024, -0.192, 19:18:31.862, 1589044711862
36, -429.82, 0.00, 0.00, 0.00, 0.016, -1.024, -0.192, 19:18:31.862, 1589044711862
37, -309.36, 0.00, 0.00, 0.00, 0.016, -1.024, -0.192, 19:18:31.876, 1589044711876
38, 23.62, 0.00, 0.00, 0.00, 0.016, -1.024, -0.192, 19:18:31.876, 1589044711876
39, -83.61, 0.00, 0.00, 0.00, 0.016, -1.024, -0.192, 19:18:31.892, 1589044711892
40, -434.54, 0.00, 0.00, 0.00, 0.016, -1.024, -0.192, 19:18:31.892, 1589044711892
41, -309.29, 0.00, 0.00, 0.00, 0.016, -1.024, -0.192, 19:18:31.893, 1589044711893
42, 30.43, 0.00, 0.00, 0.00, 0.016, -1.024, -0.192, 19:18:31.893, 1589044711893
43, -93.24, 0.00, 0.00, 0.00, 0.016, -1.024, -0.192, 19:18:31.907, 1589044711907
44, -421.34, 0.00, 0.00, 0.00, 0.016, -1.024, -0.192, 19:18:31.907, 1589044711907
45, -295.36, 0.00, 0.00, 0.00, 0.016, -1.024, -0.192, 19:18:31.922, 1589044711922
46, 17.90, 0.00, 0.00, 0.00, 0.016, -1.008, -0.208, 19:18:31.922, 1589044711922
47, -87.95, 0.00, 0.00, 0.00, 0.016, -1.008, -0.208, 19:18:31.923, 1589044711923
48, -417.03, 0.00, 0.00, 0.00, 0.016, -1.008, -0.208, 19:18:31.923, 1589044711923
49, -293.93, 0.00, 0.00, 0.00, 0.016, -1.008, -0.208, 19:18:31.936, 1589044711936
50, 22.71, 0.00, 0.00, 0.00, 0.016, -1.008, -0.208, 19:18:31.936, 1589044711936
51, -85.47, 0.00, 0.00, 0.00, 0.016, -1.008, -0.208, 19:18:31.952, 1589044711952
52, -432.09, 0.00, 0.00, 0.00, 0.016, -1.008, -0.208, 19:18:31.952, 1589044711952
53, -311.07, 0.00, 0.00, 0.00, 0.016, -1.008, -0.208, 19:18:31.952, 1589044711952
54, 13.18, 0.00, 0.00, 0.00, 0.016, -1.008, -0.208, 19:18:31.952, 1589044711952
55, -79.05, 0.00, 0.00, 0.00, 0.016, -1.008, -0.208, 19:18:31.966, 1589044711966
