%OpenBCI Raw EEG Data
%Number of channels = 4
%Sample Rate = 200.0 Hz
%First Column = SampleIndex
%Last Column = Timestamp 
%Other Columns = EEG data in microvolts followed by Accel Data (in G) interleaved with Aux Data
0, 62.33, 0.00, 0.00, 0.00, 0.016, -0.032, -1.056, 19:16:39.557, 1589044599557
1, -306.40, 0.00, 0.00, 0.00, 0.016, -0.032, -1.056, 19:16:39.571, 1589044599571
2, -250.21, 0.00, 0.00, 0.00, 0.016, -0.032, -1.056, 19:16:39.571, 1589044599571
3, 71.00, 0.00, 0.00, 0.00, 0.016, -0.032, -1.056, 19:16:39.586, 1589044599586
4, 42.89, 0.00, 0.00, 0.00, 0.016, -0.032, -1.056, 19:16:39.586, 1589044599586
5, -312.83, 0.00, 0.00, 0.00, 0.016, -0.032, -1.056, 19:16:39.587, 1589044599587
6, -271.10, 0.00, 0.00, 0.00, 0.016, -0.032, -1.056, 19:16:39.587, 1589044599587
7, 68.88, 0.00, 0.00, 0.00, 0.016, -0.032, -1.056, 19:16:39.601, 1589044599601
8, 48.98, 0.00, 0.00, 0.00, 0.016, -0.032, -1.056, 19:16:39.601, 1589044599601
9, -332.59, 0.00, 0.00, 0.00, 0.016, -0.032, -1.056, 19:16:39.616, 1589044599616
10, -278.14, 0.00, 0.00, 0.00, 0.016, -0.032, -1.056, 19:16:39.616, 1589044599616
11, 61.06, 0.00, 0.00, 0.00, 0.016, -0.032, -1.056, 19:16:39.633, 1589044599633
12, 21.08, 0.00, 0.00, 0.00, 0.016, -0.032, -1.056, 19:16:39.633, 1589044599633
13, -347.29, 0.00, 0.00, 0.00, 0.016, -0.032, -1.056, 19:16:39.633, 1589044599633
14, -293.05, 0.00, 0.00, 0.00, 0.016, -0.032, -1.056, 19:16:39.633, 1589044599633
15, 50.60, 0.00, 0.00, 0.00, 0.016, -0.032, -1.056, 19:16:39.647, 1589044599647
16, -1.45, 0.00, 0.00, 0.00, 0.016, -0.032, -1.056, 19:16:39.647, 1589044599647
17, -380.05, 0.00, 0.00, 0.00, 0.016, -0.032, -1.056, 19:16:39.661, 1589044599661
18, -309.65, 0.00, 0.00, 0.00, 0.016, -0.032, -1.056, 19:16:39.661, 1589044599661
19, 37.62, 0.00, 0.00, 0.00, 0.016, -0.032, -1.056, 19:16:39.662, 1589044599662
20, 22.44, 0.00, 0.00, 0.00, 0.016, -0.032, -1.056, 19:16:39.662, 1589044599662
21, -352.57, 0.00, 0.00, 0.00, 0.016, -0.032, -1.056, 19:16:39.708, 1589044599708
22, -300.71, 0.00, 0.00, 0.00, 0.016, -0.032, -1.056, 19:16:39.708, 1589044599708
23, 49.05, 0.00, 0.00, 0.00, 0.016, -0.032, -1.056, 19:16:39.709, 1589044599709
24, 6.45, 0.00, 0.00, 0.00, 0.016, -0.032, -1.056, 19:16:39.709, 1589044599709
25, -345.28, 0.00, 0.00, 0.00, 0.016, -0.032, -1.056, 19:16:39.710, 1589044599710
26, -287.27, 0.00, 0.00, 0.00, -0.032, -0.528, -0.080, 19:16:39.710, 1589044599710
27, 37.60, 0.00, 0.00, 0.00, -0.032, -0.528, -0.080, 19:16:39.710, 1589044599710
28, 9.86, 0.00, 0.00, 0.00, -0.032, -0.528, -0.080, 19:16:39.710, 1589044599710
29, -355.27, 0.00, 0.00, 0.00, -0.032, -0.528, -0.080, 19:16:39.738, 1589044599738
30, -285.10, 0.00, 0.00, 0.00, -0.032, -0.528, -0.080, 19:16:39.738, 1589044599738
31, 38.33, 0.00, 0.00, 0.00, -0.032, -0.528, -0.080, 19:16:39.739, 1589044599739
32, 14.60, 0.00, 0.00, 0.00, -0.032, -0.528, -0.080, 19:16:39.739, 1589044599739
33, -341.81, 0.00, 0.00, 0.00, -0.032, -0.528, -0.080, 19:16:39.739, 1589044599739
34, -303.71, 0.00, 0.00, 0.00, -0.032, -0.528, -0.080, 19:16:39.739, 1589044599739
35, 31.99, 0.00, 0.00, 0.00, -0.032, -0.528, -0.080, 19:16:39.740, 1589044599740
36, 3.20, 0.00, 0.00, 0.00, -0.032, -0.528, -0.080, 19:16:39.740, 1589044599740
37, -368.85, 0.00, 0.00, 0.00, -0.032, -0.528, -0.080, 19:16:39.767, 1589044599767
38, -305.61, 0.00, 0.00, 0.00, -0.032, -0.528, -0.080, 19:16:39.767, 1589044599767
39, 18.94, 0.00, 0.00, 0.00, -0.032, -0.528, -0.080, 19:16:39.768, 1589044599768
40, -11.76, 0.00, 0.00, 0.00, -0.032, -0.528, -0.080, 19:16:39.768, 1589044599768
41, -390.80, 0.00, 0.00, 0.00, -0.032, -0.528, -0.080, 19:16:39.769, 1589044599769
42, -338.06, 0.00, 0.00, 0.00, -0.032, -0.528, -0.080, 19:16:39.769, 1589044599769
43, 17.04, 0.00, 0.00, 0.00, -0.032, -0.528, -0.080, 19:16:39.781, 1589044599781
44, -19.42, 0.00, 0.00, 0.00, -0.032, -0.528, -0.080, 19:16:39.781, 1589044599781
45, -379.31, 0.00, 0.00, 0.00, -0.032, -0.528, -0.080, 19:16:39.797, 1589044599797
46, -313.37, 0.00, 0.00, 0.00, -0.064, -0.752, -0.160, 19:16:39.797, 1589044599797
47, 7.24, 0.00, 0.00, 0.00, -0.064, -0.752, -0.160, 19:16:39.811, 1589044599811
48, -24.62, 0.00, 0.00, 0.00, -0.064, -0.752, -0.160, 19:16:39.811, 1589044599811
49, -378.00, 0.00, 0.00, 0.00, -0.064, -0.752, -0.160, 19:16:39.812, 1589044599812
50, -319.23, 0.00, 0.00, 0.00, -0.064, -0.752, -0.160, 19:16:39.812, 1589044599812
51, 1.56, 0.00, 0.00, 0.00, -0.064, -0.752, -0.160, 19:16:39.826, 1589044599826
52, -22.32, 0.00, 0.00, 0.00, -0.064, -0.752, -0.160, 19:16:39.826, 1589044599826
53, -362.11, 0.00, 0.00, 0.00, -0.064, -0.752, -0.160, 19:16:39.827, 1589044599827
54, -325.06, 0.00, 0.00, 0.00, -0.064, -0.752, -0.160, 19:16:39.827, 1589044599827
55, 5.78, 0.00, 0.00, 0.00, -0.064, -0.752, -0.160, 19:16:39.841, 1589044599841
56, -9.06, 0.00, 0.00, 0.00, -0.064, -0.752, -0.160, 19:16:39.841, 1589044599841
57, -380.51, 0.00, 0.00, 0.00, -0.064, -0.752, -0.160, 19:16:39.857, 1589044599857
58, -330.67, 0.00, 0.00, 0.00, -0.064, -0.752, -0.160, 19:16:39.857, 1589044599857
59, 13.03, 0.00, 0.00, 0.00, -0.064, -0.752, -0.160, 19:16:39.872, 1589044599872
60, -23.14, 0.00, 0.00, 0.00, -0.064, -0.752, -0.160, 19:16:39.872, 1589044599872
61, -389.38, 0.00, 0.00, 0.00, -0.064, -0.752, -0.160, 19:16:39.873, 1589044599873
62, -335.54, 0.00, 0.00, 0.00, -0.064, -0.752, -0.160, 19:16:39.873, 1589044599873
63, 12.21, 0.00, 0.00, 0.00, -0.064, -0.752, -0.160, 19:16:39.887, 1589044599887
64, -22.45, 0.00, 0.00, 0.00, -0.064, -0.752, -0.160, 19:16:39.887, 1589044599887
65, -377.82, 0.00, 0.00, 0.00, -0.064, -0.752, -0.160, 19:16:39.889, 1589044599889
66, -322.22, 0.00, 0.00, 0.00, -0.064, -0.880, -0.160, 19:16:39.889, 1589044599889
67, -1.91, 0.00, 0.00, 0.00, -0.064, -0.880, -0.160, 19:16:39.901, 1589044599901
68, -27.94, 0.00, 0.00, 0.00, -0.064, -0.880, -0.160, 19:16:39.901, 1589044599901
69, -395.18, 0.00, 0.00, 0.00, -0.064, -0.880, -0.160, 19:16:39.916, 1589044599916
70, -341.64, 0.00, 0.00, 0.00, -0.064, -0.880, -0.160, 19:16:39.916, 1589044599916
71, 8.99, 0.00, 0.00, 0.00, -0.064, -0.880, -0.160, 19:16:39.917, 1589044599917
72, -22.38, 0.00, 0.00, 0.00, -0.064, -0.880, -0.160, 19:16:39.917, 1589044599917
73, -393.76, 0.00, 0.00, 0.00, -0.064, -0.880, -0.160, 19:16:39.931, 1589044599931
74, -342.45, 0.00, 0.00, 0.00, -0.064, -0.880, -0.160, 19:16:39.931, 1589044599931
75, -22.98, 0.00, 0.00, 0.00, -0.064, -0.880, -0.160, 19:16:39.963, 1589044599963
76, -42.89, 0.00, 0.00, 0.00, -0.064, -0.880, -0.160, 19:16:39.963, 1589044599963
77, -404.94, 0.00, 0.00, 0.00, -0.064, -0.880, -0.160, 19:16:39.963, 1589044599963
78, -371.09, 0.00, 0.00, 0.00, -0.064, -0.880, -0.160, 19:16:39.963, 1589044599963
79, -53.21, 0.00, 0.00, 0.00, -0.064, -0.880, -0.160, 19:16:39.964, 1589044599964
80, -53.76, 0.00, 0.00, 0.00, -0.064, -0.880, -0.160, 19:16:39.964, 1589044599964
81, -416.81, 0.00, 0.00, 0.00, -0.064, -0.880, -0.160, 19:16:39.965, 1589044599965
82, -363.90, 0.00, 0.00, 0.00, -0.064, -0.880, -0.160, 19:16:39.965, 1589044599965
83, -36.27, 0.00, 0.00, 0.00, -0.064, -0.880, -0.160, 19:16:39.976, 1589044599976
84, -33.66, 0.00, 0.00, 0.00, -0.064, -0.880, -0.160, 19:16:39.976, 1589044599976
85, -392.64, 0.00, 0.00, 0.00, -0.064, -0.880, -0.160, 19:16:39.991, 1589044599991
86, -339.79, 0.00, 0.00, 0.00, -0.064, -0.960, -0.176, 19:16:39.991, 1589044599991
87, -9.13, 0.00, 0.00, 0.00, -0.064, -0.960, -0.176, 19:16:40.006, 1589044600006
88, -53.46, 0.00, 0.00, 0.00, -0.064, -0.960, -0.176, 19:16:40.006, 1589044600006
89, -404.65, 0.00, 0.00, 0.00, -0.064, -0.960, -0.176, 19:16:40.007, 1589044600007
90, -336.66, 0.00, 0.00, 0.00, -0.064, -0.960, -0.176, 19:16:40.007, 1589044600007
91, -14.82, 0.00, 0.00, 0.00, -0.064, -0.960, -0.176, 19:16:40.021, 1589044600021
92, -35.80, 0.00, 0.00, 0.00, -0.064, -0.960, -0.176, 19:16:40.021, 1589044600021
93, -387.18, 0.00, 0.00, 0.00, -0.064, -0.960, -0.176, 19:16:40.036, 1589044600036
94, -330.04, 0.00, 0.00, 0.00, -0.064, -0.960, -0.176, 19:16:40.036, 1589044600036
95, -23.25, 0.00, 0.00, 0.00, -0.064, -0.960, -0.176, 19:16:40.037, 1589044600037
96, -39.02, 0.00, 0.00, 0.00, -0.064, -0.960, -0.176, 19:16:40.037, 1589044600037
97, -385.82, 0.00, 0.00, 0.00, -0.064, -0.960, -0.176, 19:16:40.051, 1589044600051
98, -346.28, 0.00, 0.00, 0.00, -0.064, -0.960, -0.176, 19:16:40.051, 1589044600051
99, -21.38, 0.00, 0.00, 0.00, -0.064, -0.960, -0.176, 19:16:40.066, 1589044600066
100, -32.19, 0.00, 0.00, 0.00, -0.064, -0.960, -0.176, 19:16:40.066, 1589044600066
101, -401.45, 0.00, 0.00, 0.00, -0.064, -0.960, -0.176, 19:16:40.067, 1589044600067
102, -343.91, 0.00, 0.00, 0.00, -0.064, -0.960, -0.176, 19:16:40.067, 1589044600067
103, -22.12, 0.00, 0.00, 0.00, -0.064, -0.960, -0.176, 19:16:40.081, 1589044600081
104, -30.59, 0.00, 0.00, 0.00, -0.064, -0.960, -0.176, 19:16:40.081, 1589044600081
105, -396.91, 0.00, 0.00, 0.00, -0.064, -0.960, -0.176, 19:16:40.096, 1589044600096
106, -350.00, 0.00, 0.00, 0.00, -0.080, -0.992, -0.192, 19:16:40.096, 1589044600096
107, -5.24, 0.00, 0.00, 0.00, -0.080, -0.992, -0.192, 19:16:40.097, 1589044600097
108, -33.83, 0.00, 0.00, 0.00, -0.080, -0.992, -0.192, 19:16:40.097, 1589044600097
109, -392.63, 0.00, 0.00, 0.00, -0.080, -0.992, -0.192, 19:16:40.111, 1589044600111
110, -331.21, 0.00, 0.00, 0.00, -0.080, -0.992, -0.192, 19:16:40.111, 1589044600111
111, -16.61, 0.00, 0.00, 0.00, -0.080, -0.992, -0.192, 19:16:40.126, 1589044600126
112, -37.13, 0.00, 0.00, 0.00, -0.080, -0.992, -0.192, 19:16:40.126, 1589044600126
113, -391.92, 0.00, 0.00, 0.00, -0.080, -0.992, -0.192, 19:16:40.127, 1589044600127
114, -341.15, 0.00, 0.00, 0.00, -0.080, -0.992, -0.192, 19:16:40.127, 1589044600127
115, -17.27, 0.00, 0.00, 0.00, -0.080, -0.992, -0.192, 19:16:40.141, 1589044600141
116, -34.37, 0.00, 0.00, 0.00, -0.080, -0.992, -0.192, 19:16:40.141, 1589044600141
117, -397.87, 0.00, 0.00, 0.00, -0.080, -0.992, -0.192, 19:16:40.157, 1589044600157
118, -351.15, 0.00, 0.00, 0.00, -0.080, -0.992, -0.192, 19:16:40.157, 1589044600157
119, -24.11, 0.00, 0.00, 0.00, -0.080, -0.992, -0.192, 19:16:40.157, 1589044600157
120, -28.88, 0.00, 0.00, 0.00, -0.080, -0.992, -0.192, 19:16:40.157, 1589044600157
121, -400.00, 0.00, 0.00, 0.00, -0.080, -0.992, -0.192, 19:16:40.187, 1589044600187
122, -350.39, 0.00, 0.00, 0.00, -0.080, -0.992, -0.192, 19:16:40.187, 1589044600187
123, 3.96, 0.00, 0.00, 0.00, -0.080, -0.992, -0.192, 19:16:40.188, 1589044600188
124, -33.49, 0.00, 0.00, 0.00, -0.080, -0.992, -0.192, 19:16:40.188, 1589044600188
125, -396.68, 0.00, 0.00, 0.00, -0.080, -0.992, -0.192, 19:16:40.189, 1589044600189
126, -337.93, 0.00, 0.00, 0.00, -0.096, -1.008, -0.192, 19:16:40.189, 1589044600189
127, -14.85, 0.00, 0.00, 0.00, -0.096, -1.008, -0.192, 19:16:40.201, 1589044600201
128, -27.69, 0.00, 0.00, 0.00, -0.096, -1.008, -0.192, 19:16:40.201, 1589044600201
129, -398.70, 0.00, 0.00, 0.00, -0.096, -1.008, -0.192, 19:16:40.217, 1589044600217
130, -342.17, 0.00, 0.00, 0.00, -0.096, -1.008, -0.192, 19:16:40.217, 1589044600217
131, -17.44, 0.00, 0.00, 0.00, -0.096, -1.008, -0.192, 19:16:40.218, 1589044600218
132, -31.65, 0.00, 0.00, 0.00, -0.096, -1.008, -0.192, 19:16:40.218, 1589044600218
133, -379.59, 0.00, 0.00, 0.00, -0.096, -1.008, -0.192, 19:16:40.231, 1589044600231
134, -349.08, 0.00, 0.00, 0.00, -0.096, -1.008, -0.192, 19:16:40.231, 1589044600231
135, -11.40, 0.00, 0.00, 0.00, -0.096, -1.008, -0.192, 19:16:40.246, 1589044600246
136, -20.67, 0.00, 0.00, 0.00, -0.096, -1.008, -0.192, 19:16:40.246, 1589044600246
137, -394.48, 0.00, 0.00, 0.00, -0.096, -1.008, -0.192, 19:16:40.247, 1589044600247
138, -347.89, 0.00, 0.00, 0.00, -0.096, -1.008, -0.192, 19:16:40.247, 1589044600247
139, -7.17, 0.00, 0.00, 0.00, -0.096, -1.008, -0.192, 19:16:40.261, 1589044600261
140, -17.23, 0.00, 0.00, 0.00, -0.096, -1.008, -0.192, 19:16:40.261, 1589044600261
141, -383.98, 0.00, 0.00, 0.00, -0.096, -1.008, -0.192, 19:16:40.293, 1589044600293
142, -347.88, 0.00, 0.00, 0.00, -0.096, -1.008, -0.192, 19:16:40.293, 1589044600293
143, 5.97, 0.00, 0.00, 0.00, -0.096, -1.008, -0.192, 19:16:40.293, 1589044600293
144, -24.74, 0.00, 0.00, 0.00, -0.096, -1.008, -0.192, 19:16:40.293, 1589044600293
145, -391.37, 0.00, 0.00, 0.00, -0.096, -1.008, -0.192, 19:16:40.294, 1589044600294
146, -345.23, 0.00, 0.00, 0.00, -0.096, -1.024, -0.176, 19:16:40.294, 1589044600294
147, 2.36, 0.00, 0.00, 0.00, -0.096, -1.024, -0.176, 19:16:40.295, 1589044600295
148, -32.76, 0.00, 0.00, 0.00, -0.096, -1.024, -0.176, 19:16:40.295, 1589044600295
149, -392.08, 0.00, 0.00, 0.00, -0.096, -1.024, -0.176, 19:16:40.306, 1589044600306
150, -333.84, 0.00, 0.00, 0.00, -0.096, -1.024, -0.176, 19:16:40.306, 1589044600306
151, -10.98, 0.00, 0.00, 0.00, -0.096, -1.024, -0.176, 19:16:40.321, 1589044600321
152, -28.14, 0.00, 0.00, 0.00, -0.096, -1.024, -0.176, 19:16:40.321, 1589044600321
153, -381.71, 0.00, 0.00, 0.00, -0.096, -1.024, -0.176, 19:16:40.337, 1589044600337
154, -352.55, 0.00, 0.00, 0.00, -0.096, -1.024, -0.176, 19:16:40.337, 1589044600337
155, -14.19, 0.00, 0.00, 0.00, -0.096, -1.024, -0.176, 19:16:40.338, 1589044600338
156, -29.91, 0.00, 0.00, 0.00, -0.096, -1.024, -0.176, 19:16:40.338, 1589044600338
157, -389.70, 0.00, 0.00, 0.00, -0.096, -1.024, -0.176, 19:16:40.351, 1589044600351
158, -352.93, 0.00, 0.00, 0.00, -0.096, -1.024, -0.176, 19:16:40.351, 1589044600351
159, -19.75, 0.00, 0.00, 0.00, -0.096, -1.024, -0.176, 19:16:40.367, 1589044600367
160, -26.49, 0.00, 0.00, 0.00, -0.096, -1.024, -0.176, 19:16:40.367, 1589044600367
161, -396.28, 0.00, 0.00, 0.00, -0.096, -1.024, -0.176, 19:16:40.367, 1589044600367
162, -344.56, 0.00, 0.00, 0.00, -0.096, -1.024, -0.176, 19:16:40.367, 1589044600367
163, -17.29, 0.00, 0.00, 0.00, -0.096, -1.024, -0.176, 19:16:40.381, 1589044600381
164, -35.87, 0.00, 0.00, 0.00, -0.096, -1.024, -0.176, 19:16:40.381, 1589044600381
165, -393.94, 0.00, 0.00, 0.00, -0.096, -1.024, -0.176, 19:16:40.396, 1589044600396
166, -356.78, 0.00, 0.00, 0.00, -0.096, -1.024, -0.176, 19:16:40.396, 1589044600396
167, -25.07, 0.00, 0.00, 0.00, -0.096, -1.024, -0.176, 19:16:40.397, 1589044600397
168, -34.27, 0.00, 0.00, 0.00, -0.096, -1.024, -0.176, 19:16:40.397, 1589044600397
169, -405.55, 0.00, 0.00, 0.00, -0.096, -1.024, -0.176, 19:16:40.411, 1589044600411
170, -364.11, 0.00, 0.00, 0.00, -0.096, -1.024, -0.176, 19:16:40.411, 1589044600411
171, -22.20, 0.00, 0.00, 0.00, -0.096, -1.024, -0.176, 19:16:40.426, 1589044600426
172, -22.01, 0.00, 0.00, 0.00, -0.096, -1.024, -0.176, 19:16:40.426, 1589044600426
173, -398.35, 0.00, 0.00, 0.00, -0.096, -1.024, -0.176, 19:16:40.441, 1589044600441
174, -356.86, 0.00, 0.00, 0.00, -0.096, -1.024, -0.176, 19:16:40.441, 1589044600441
175, -11.19, 0.00, 0.00, 0.00, -0.096, -1.024, -0.176, 19:16:40.442, 1589044600442
176, -41.16, 0.00, 0.00, 0.00, -0.096, -1.024, -0.176, 19:16:40.442, 1589044600442
177, -409.05, 0.00, 0.00, 0.00, -0.096, -1.024, -0.176, 19:16:40.457, 1589044600457
178, -350.33, 0.00, 0.00, 0.00, -0.096, -1.024, -0.176, 19:16:40.457, 1589044600457
179, -29.39, 0.00, 0.00, 0.00, -0.096, -1.024, -0.176, 19:16:40.457, 1589044600457
180, -42.45, 0.00, 0.00, 0.00, -0.096, -1.024, -0.176, 19:16:40.457, 1589044600457
181, -405.48, 0.00, 0.00, 0.00, -0.096, -1.024, -0.176, 19:16:40.471, 1589044600471
182, -350.81, 0.00, 0.00, 0.00, -0.096, -1.024, -0.176, 19:16:40.471, 1589044600471
183, -31.11, 0.00, 0.00, 0.00, -0.096, -1.024, -0.176, 19:16:40.487, 1589044600487
184, -38.24, 0.00, 0.00, 0.00, -0.096, -1.024, -0.176, 19:16:40.487, 1589044600487
185, -399.28, 0.00, 0.00, 0.00, -0.096, -1.024, -0.176, 19:16:40.487, 1589044600487
186, -366.38, 0.00, 0.00, 0.00, -0.112, -1.024, -0.176, 19:16:40.487, 1589044600487
187, -28.28, 0.00, 0.00, 0.00, -0.112, -1.024, -0.176, 19:16:40.517, 1589044600517
188, -45.74, 0.00, 0.00, 0.00, -0.112, -1.024, -0.176, 19:16:40.517, 1589044600517
189, -409.27, 0.00, 0.00, 0.00, -0.112, -1.024, -0.176, 19:16:40.518, 1589044600518
190, -350.81, 0.00, 0.00, 0.00, -0.112, -1.024, -0.176, 19:16:40.518, 1589044600518
191, -31.29, 0.00, 0.00, 0.00, -0.112, -1.024, -0.176, 19:16:40.518, 1589044600518
192, -30.36, 0.00, 0.00, 0.00, -0.112, -1.024, -0.176, 19:16:40.518, 1589044600518
193, -384.02, 0.00, 0.00, 0.00, -0.112, -1.024, -0.176, 19:16:40.531, 1589044600531
194, -370.42, 0.00, 0.00, 0.00, -0.112, -1.024, -0.176, 19:16:40.531, 1589044600531
195, -36.22, 0.00, 0.00, 0.00, -0.112, -1.024, -0.176, 19:16:40.546, 1589044600546
196, -39.28, 0.00, 0.00, 0.00, -0.112, -1.024, -0.176, 19:16:40.546, 1589044600546
197, -406.30, 0.00, 0.00, 0.00, -0.112, -1.024, -0.176, 19:16:40.547, 1589044600547
198, -359.47, 0.00, 0.00, 0.00, -0.112, -1.024, -0.176, 19:16:40.547, 1589044600547
199, -31.69, 0.00, 0.00, 0.00, -0.112, -1.024, -0.176, 19:16:40.561, 1589044600561
200, -33.30, 0.00, 0.00, 0.00, -0.112, -1.024, -0.176, 19:16:40.561, 1589044600561
0, -409.88, 0.00, 0.00, 0.00, -0.112, -1.024, -0.176, 19:16:40.562, 1589044600562
1, -375.61, 0.00, 0.00, 0.00, -0.112, -1.024, -0.176, 19:16:40.576, 1589044600576
2, -28.42, 0.00, 0.00, 0.00, -0.112, -1.024, -0.176, 19:16:40.576, 1589044600576
3, -47.85, 0.00, 0.00, 0.00, -0.112, -1.024, -0.176, 19:16:40.591, 1589044600591
4, -410.43, 0.00, 0.00, 0.00, -0.112, -1.024, -0.176, 19:16:40.591, 1589044600591
5, -360.00, 0.00, 0.00, 0.00, -0.112, -1.024, -0.176, 19:16:40.592, 1589044600592
6, -32.24, 0.00, 0.00, 0.00, -0.112, -1.024, -0.176, 19:16:40.592, 1589044600592
7, -46.89, 0.00, 0.00, 0.00, -0.112, -1.024, -0.176, 19:16:40.623, 1589044600623
8, -417.72, 0.00, 0.00, 0.00, -0.112, -1.024, -0.176, 19:16:40.623, 1589044600623
9, -371.35, 0.00, 0.00, 0.00, -0.112, -1.024, -0.176, 19:16:40.623, 1589044600623
10, -40.45, 0.00, 0.00, 0.00, -0.112, -1.024, -0.176, 19:16:40.623, 1589044600623
11, -51.03, 0.00, 0.00, 0.00, -0.112, -1.024, -0.176, 19:16:40.624, 1589044600624
12, -404.77, 0.00, 0.00, 0.00, -0.112, -1.024, -0.176, 19:16:40.624, 1589044600624
13, -371.63, 0.00, 0.00, 0.00, -0.112, -1.024, -0.176, 19:16:40.636, 1589044600636
14, -36.11, 0.00, 0.00, 0.00, -0.112, -1.024, -0.176, 19:16:40.636, 1589044600636
15, -45.22, 0.00, 0.00, 0.00, -0.112, -1.024, -0.176, 19:16:40.652, 1589044600652
16, -412.17, 0.00, 0.00, 0.00, -0.112, -1.024, -0.176, 19:16:40.652, 1589044600652
17, -371.48, 0.00, 0.00, 0.00, -0.112, -1.024, -0.176, 19:16:40.652, 1589044600652
18, -34.56, 0.00, 0.00, 0.00, -0.112, -1.024, -0.176, 19:16:40.652, 1589044600652
19, -36.49, 0.00, 0.00, 0.00, -0.112, -1.024, -0.176, 19:16:40.665, 1589044600665
20, -417.00, 0.00, 0.00, 0.00, -0.112, -1.024, -0.176, 19:16:40.665, 1589044600665
21, -375.47, 0.00, 0.00, 0.00, -0.112, -1.024, -0.176, 19:16:40.681, 1589044600681
22, -27.72, 0.00, 0.00, 0.00, -0.112, -1.024, -0.176, 19:16:40.681, 1589044600681
23, -46.22, 0.00, 0.00, 0.00, -0.112, -1.024, -0.176, 19:16:40.682, 1589044600682
24, -418.69, 0.00, 0.00, 0.00, -0.112, -1.024, -0.176, 19:16:40.682, 1589044600682
25, -369.15, 0.00, 0.00, 0.00, -0.112, -1.024, -0.176, 19:16:40.695, 1589044600695
26, -35.53, 0.00, 0.00, 0.00, -0.112, -1.024, -0.160, 19:16:40.695, 1589044600695
27, -47.38, 0.00, 0.00, 0.00, -0.112, -1.024, -0.160, 19:16:40.711, 1589044600711
28, -418.42, 0.00, 0.00, 0.00, -0.112, -1.024, -0.160, 19:16:40.711, 1589044600711
29, -364.52, 0.00, 0.00, 0.00, -0.112, -1.024, -0.160, 19:16:40.712, 1589044600712
30, -41.78, 0.00, 0.00, 0.00, -0.112, -1.024, -0.160, 19:16:40.712, 1589044600712
31, -37.84, 0.00, 0.00, 0.00, -0.112, -1.024, -0.160, 19:16:40.742, 1589044600742
32, -422.37, 0.00, 0.00, 0.00, -0.112, -1.024, -0.160, 19:16:40.742, 1589044600742
33, -378.17, 0.00, 0.00, 0.00, -0.112, -1.024, -0.160, 19:16:40.743, 1589044600743
34, -30.10, 0.00, 0.00, 0.00, -0.112, -1.024, -0.160, 19:16:40.743, 1589044600743
35, -49.50, 0.00, 0.00, 0.00, -0.112, -1.024, -0.160, 19:16:40.744, 1589044600744
36, -426.05, 0.00, 0.00, 0.00, -0.112, -1.024, -0.160, 19:16:40.744, 1589044600744
37, -375.84, 0.00, 0.00, 0.00, -0.112, -1.024, -0.160, 19:16:40.756, 1589044600756
38, -18.55, 0.00, 0.00, 0.00, -0.112, -1.024, -0.160, 19:16:40.756, 1589044600756
39, -50.53, 0.00, 0.00, 0.00, -0.112, -1.024, -0.160, 19:16:40.772, 1589044600772
40, -418.67, 0.00, 0.00, 0.00, -0.112, -1.024, -0.160, 19:16:40.772, 1589044600772
41, -362.33, 0.00, 0.00, 0.00, -0.112, -1.024, -0.160, 19:16:40.772, 1589044600772
42, -21.67, 0.00, 0.00, 0.00, -0.112, -1.024, -0.160, 19:16:40.772, 1589044600772
43, -36.10, 0.00, 0.00, 0.00, -0.112, -1.024, -0.160, 19:16:40.786, 1589044600786
44, -414.67, 0.00, 0.00, 0.00, -0.112, -1.024, -0.160, 19:16:40.786, 1589044600786
45, -365.01, 0.00, 0.00, 0.00, -0.112, -1.024, -0.160, 19:16:40.801, 1589044600801
46, -24.81, 0.00, 0.00, 0.00, -0.096, -0.992, -0.160, 19:16:40.801, 1589044600801
47, -38.41, 0.00, 0.00, 0.00, -0.096, -0.992, -0.160, 19:16:40.802, 1589044600802
48, -408.36, 0.00, 0.00, 0.00, -0.096, -0.992, -0.160, 19:16:40.802, 1589044600802
49, -365.98, 0.00, 0.00, 0.00, -0.096, -0.992, -0.160, 19:16:40.816, 1589044600816
50, -33.91, 0.00, 0.00, 0.00, -0.096, -0.992, -0.160, 19:16:40.816, 1589044600816
51, -50.91, 0.00, 0.00, 0.00, -0.096, -0.992, -0.160, 19:16:40.848, 1589044600848
52, -412.27, 0.00, 0.00, 0.00, -0.096, -0.992, -0.160, 19:16:40.848, 1589044600848
53, -365.48, 0.00, 0.00, 0.00, -0.096, -0.992, -0.160, 19:16:40.849, 1589044600849
54, -39.32, 0.00, 0.00, 0.00, -0.096, -0.992, -0.160, 19:16:40.849, 1589044600849
55, -50.71, 0.00, 0.00, 0.00, -0.096, -0.992, -0.160, 19:16:40.850, 1589044600850
56, -403.30, 0.00, 0.00, 0.00, -0.096, -0.992, -0.160, 19:16:40.850, 1589044600850
57, -376.23, 0.00, 0.00, 0.00, -0.096, -0.992, -0.160, 19:16:40.850, 1589044600850
58, -39.99, 0.00, 0.00, 0.00, -0.096, -0.992, -0.160, 19:16:40.850, 1589044600850
59, -35.40, 0.00, 0.00, 0.00, -0.096, -0.992, -0.160, 19:16:40.861, 1589044600861
60, -413.59, 0.00, 0.00, 0.00, -0.096, -0.992, -0.160, 19:16:40.861, 1589044600861
61, -373.44, 0.00, 0.00, 0.00, -0.096, -0.992, -0.160, 19:16:40.875, 1589044600875
62, -41.16, 0.00, 0.00, 0.00, -0.096, -0.992, -0.160, 19:16:40.875, 1589044600875
63, -39.79, 0.00, 0.00, 0.00, -0.096, -0.992, -0.160, 19:16:40.892, 1589044600892
64, -417.47, 0.00, 0.00, 0.00, -0.096, -0.992, -0.160, 19:16:40.892, 1589044600892
65, -374.16, 0.00, 0.00, 0.00, -0.096, -0.992, -0.160, 19:16:40.892, 1589044600892
66, -29.55, 0.00, 0.00, 0.00, -0.096, -1.024, -0.176, 19:16:40.892, 1589044600892
67, -42.67, 0.00, 0.00, 0.00, -0.096, -1.024, -0.176, 19:16:40.905, 1589044600905
68, -414.97, 0.00, 0.00, 0.00, -0.096, -1.024, -0.176, 19:16:40.905, 1589044600905
69, -364.75, 0.00, 0.00, 0.00, -0.096, -1.024, -0.176, 19:16:40.921, 1589044600921
70, -41.29, 0.00, 0.00, 0.00, -0.096, -1.024, -0.176, 19:16:40.921, 1589044600921
71, -36.79, 0.00, 0.00, 0.00, -0.096, -1.024, -0.176, 19:16:40.922, 1589044600922
72, -419.40, 0.00, 0.00, 0.00, -0.096, -1.024, -0.176, 19:16:40.922, 1589044600922
73, -375.95, 0.00, 0.00, 0.00, -0.096, -1.024, -0.176, 19:16:40.936, 1589044600936
74, -30.64, 0.00, 0.00, 0.00, -0.096, -1.024, -0.176, 19:16:40.936, 1589044600936
75, -41.53, 0.00, 0.00, 0.00, -0.096, -1.024, -0.176, 19:16:40.951, 1589044600951
76, -412.68, 0.00, 0.00, 0.00, -0.096, -1.024, -0.176, 19:16:40.951, 1589044600951
77, -362.14, 0.00, 0.00, 0.00, -0.096, -1.024, -0.176, 19:16:40.952, 1589044600952
78, -35.71, 0.00, 0.00, 0.00, -0.096, -1.024, -0.176, 19:16:40.952, 1589044600952
79, -42.15, 0.00, 0.00, 0.00, -0.096, -1.024, -0.176, 19:16:40.966, 1589044600966
80, -412.27, 0.00, 0.00, 0.00, -0.096, -1.024, -0.176, 19:16:40.966, 1589044600966
81, -357.75, 0.00, 0.00, 0.00, -0.096, -1.024, -0.176, 19:16:40.982, 1589044600982
82, -31.68, 0.00, 0.00, 0.00, -0.096, -1.024, -0.176, 19:16:40.982, 1589044600982
83, -37.52, 0.00, 0.00, 0.00, -0.096, -1.024, -0.176, 19:16:40.982, 1589044600982
84, -402.59, 0.00, 0.00, 0.00, -0.096, -1.024, -0.176, 19:16:40.982, 1589044600982
85, -373.57, 0.00, 0.00, 0.00, -0.096, -1.024, -0.176, 19:16:40.995, 1589044600995
86, -40.77, 0.00, 0.00, 0.00, -0.112, -1.040, -0.144, 19:16:40.995, 1589044600995
87, -31.66, 0.00, 0.00, 0.00, -0.112, -1.040, -0.144, 19:16:41.011, 1589044601011
88, -415.68, 0.00, 0.00, 0.00, -0.112, -1.040, -0.144, 19:16:41.011, 1589044601011
89, -379.56, 0.00, 0.00, 0.00, -0.112, -1.040, -0.144, 19:16:41.012, 1589044601012
90, -41.12, 0.00, 0.00, 0.00, -0.112, -1.040, -0.144, 19:16:41.012, 1589044601012
91, -36.10, 0.00, 0.00, 0.00, -0.112, -1.040, -0.144, 19:16:41.025, 1589044601025
92, -421.19, 0.00, 0.00, 0.00, -0.112, -1.040, -0.144, 19:16:41.025, 1589044601025
93, -368.85, 0.00, 0.00, 0.00, -0.112, -1.040, -0.144, 19:16:41.041, 1589044601041
94, -1.92, 0.00, 0.00, 0.00, -0.112, -1.040, -0.144, 19:16:41.041, 1589044601041
95, -42.93, 0.00, 0.00, 0.00, -0.112, -1.040, -0.144, 19:16:41.042, 1589044601042
96, -414.10, 0.00, 0.00, 0.00, -0.112, -1.040, -0.144, 19:16:41.042, 1589044601042
97, -378.05, 0.00, 0.00, 0.00, -0.112, -1.040, -0.144, 19:16:41.073, 1589044601073
98, -28.53, 0.00, 0.00, 0.00, -0.112, -1.040, -0.144, 19:16:41.073, 1589044601073
99, -45.89, 0.00, 0.00, 0.00, -0.112, -1.040, -0.144, 19:16:41.074, 1589044601074
100, -416.48, 0.00, 0.00, 0.00, -0.112, -1.040, -0.144, 19:16:41.074, 1589044601074
101, -366.14, 0.00, 0.00, 0.00, -0.112, -1.040, -0.144, 19:16:41.074, 1589044601074
102, -33.56, 0.00, 0.00, 0.00, -0.112, -1.040, -0.144, 19:16:41.074, 1589044601074
103, -42.53, 0.00, 0.00, 0.00, -0.112, -1.040, -0.144, 19:16:41.086, 1589044601086
104, -401.53, 0.00, 0.00, 0.00, -0.112, -1.040, -0.144, 19:16:41.086, 1589044601086
105, -369.63, 0.00, 0.00, 0.00, -0.112, -1.040, -0.144, 19:16:41.101, 1589044601101
106, -30.91, 0.00, 0.00, 0.00, -0.112, -1.040, -0.144, 19:16:41.101, 1589044601101
107, -41.85, 0.00, 0.00, 0.00, -0.112, -1.040, -0.144, 19:16:41.102, 1589044601102
108, -401.63, 0.00, 0.00, 0.00, -0.112, -1.040, -0.144, 19:16:41.102, 1589044601102
109, -363.77, 0.00, 0.00, 0.00, -0.112, -1.040, -0.144, 19:16:41.116, 1589044601116
110, -28.19, 0.00, 0.00, 0.00, -0.112, -1.040, -0.144, 19:16:41.116, 1589044601116
111, -24.74, 0.00, 0.00, 0.00, -0.112, -1.040, -0.144, 19:16:41.131, 1589044601131
112, -409.07, 0.00, 0.00, 0.00, -0.112, -1.040, -0.144, 19:16:41.131, 1589044601131
113, -368.36, 0.00, 0.00, 0.00, -0.112, -1.040, -0.144, 19:16:41.132, 1589044601132
114, -26.34, 0.00, 0.00, 0.00, -0.112, -1.040, -0.144, 19:16:41.132, 1589044601132
115, -38.44, 0.00, 0.00, 0.00, -0.112, -1.040, -0.144, 19:16:41.146, 1589044601146
116, -402.81, 0.00, 0.00, 0.00, -0.112, -1.040, -0.144, 19:16:41.146, 1589044601146
117, -362.38, 0.00, 0.00, 0.00, -0.112, -1.040, -0.144, 19:16:41.162, 1589044601162
118, -24.39, 0.00, 0.00, 0.00, -0.112, -1.040, -0.144, 19:16:41.162, 1589044601162
119, -25.21, 0.00, 0.00, 0.00, -0.112, -1.040, -0.144, 19:16:41.162, 1589044601162
120, -400.20, 0.00, 0.00, 0.00, -0.112, -1.040, -0.144, 19:16:41.162, 1589044601162
121, -367.49, 0.00, 0.00, 0.00, -0.112, -1.040, -0.144, 19:16:41.192, 1589044601192
122, -28.18, 0.00, 0.00, 0.00, -0.112, -1.040, -0.144, 19:16:41.192, 1589044601192
123, -39.24, 0.00, 0.00, 0.00, -0.112, -1.040, -0.144, 19:16:41.193, 1589044601193
124, -409.98, 0.00, 0.00, 0.00, -0.112, -1.040, -0.144, 19:16:41.193, 1589044601193
125, -374.17, 0.00, 0.00, 0.00, -0.112, -1.040, -0.144, 19:16:41.193, 1589044601193
126, -34.85, 0.00, 0.00, 0.00, -0.112, -1.024, -0.128, 19:16:41.193, 1589044601193
127, -34.01, 0.00, 0.00, 0.00, -0.112, -1.024, -0.128, 19:16:41.206, 1589044601206
128, -410.89, 0.00, 0.00, 0.00, -0.112, -1.024, -0.128, 19:16:41.206, 1589044601206
129, -363.66, 0.00, 0.00, 0.00, -0.112, -1.024, -0.128, 19:16:41.222, 1589044601222
130, -34.62, 0.00, 0.00, 0.00, -0.112, -1.024, -0.128, 19:16:41.222, 1589044601222
131, -29.63, 0.00, 0.00, 0.00, -0.112, -1.024, -0.128, 19:16:41.223, 1589044601223
132, -405.04, 0.00, 0.00, 0.00, -0.112, -1.024, -0.128, 19:16:41.223, 1589044601223
133, -354.88, 0.00, 0.00, 0.00, -0.112, -1.024, -0.128, 19:16:41.235, 1589044601235
134, -32.07, 0.00, 0.00, 0.00, -0.112, -1.024, -0.128, 19:16:41.235, 1589044601235
135, -42.99, 0.00, 0.00, 0.00, -0.112, -1.024, -0.128, 19:16:41.251, 1589044601251
136, -398.38, 0.00, 0.00, 0.00, -0.112, -1.024, -0.128, 19:16:41.251, 1589044601251
137, -362.82, 0.00, 0.00, 0.00, -0.112, -1.024, -0.128, 19:16:41.252, 1589044601252
138, -38.46, 0.00, 0.00, 0.00, -0.112, -1.024, -0.128, 19:16:41.252, 1589044601252
139, -32.96, 0.00, 0.00, 0.00, -0.112, -1.024, -0.128, 19:16:41.266, 1589044601266
140, -411.38, 0.00, 0.00, 0.00, -0.112, -1.024, -0.128, 19:16:41.266, 1589044601266
141, -366.65, 0.00, 0.00, 0.00, -0.112, -1.024, -0.128, 19:16:41.281, 1589044601281
142, -27.08, 0.00, 0.00, 0.00, -0.112, -1.024, -0.128, 19:16:41.281, 1589044601281
143, -33.66, 0.00, 0.00, 0.00, -0.112, -1.024, -0.128, 19:16:41.282, 1589044601282
144, -408.00, 0.00, 0.00, 0.00, -0.112, -1.024, -0.128, 19:16:41.282, 1589044601282
145, -364.21, 0.00, 0.00, 0.00, -0.112, -1.024, -0.128, 19:16:41.296, 1589044601296
146, -19.25, 0.00, 0.00, 0.00, -0.096, -1.008, -0.128, 19:16:41.296, 1589044601296
147, -38.27, 0.00, 0.00, 0.00, -0.096, -1.008, -0.128, 19:16:41.312, 1589044601312
148, -405.74, 0.00, 0.00, 0.00, -0.096, -1.008, -0.128, 19:16:41.312, 1589044601312
149, -353.92, 0.00, 0.00, 0.00, -0.096, -1.008, -0.128, 19:16:41.313, 1589044601313
150, -19.85, 0.00, 0.00, 0.00, -0.096, -1.008, -0.128, 19:16:41.313, 1589044601313
151, -33.12, 0.00, 0.00, 0.00, -0.096, -1.008, -0.128, 19:16:41.326, 1589044601326
152, -408.65, 0.00, 0.00, 0.00, -0.096, -1.008, -0.128, 19:16:41.326, 1589044601326
153, -360.59, 0.00, 0.00, 0.00, -0.096, -1.008, -0.128, 19:16:41.341, 1589044601341
154, -23.26, 0.00, 0.00, 0.00, -0.096, -1.008, -0.128, 19:16:41.341, 1589044601341
155, -30.00, 0.00, 0.00, 0.00, -0.096, -1.008, -0.128, 19:16:41.342, 1589044601342
156, -402.76, 0.00, 0.00, 0.00, -0.096, -1.008, -0.128, 19:16:41.342, 1589044601342
157, -342.03, 0.00, 0.00, 0.00, -0.096, -1.008, -0.128, 19:16:41.356, 1589044601356
158, -31.30, 0.00, 0.00, 0.00, -0.096, -1.008, -0.128, 19:16:41.356, 1589044601356
159, -39.36, 0.00, 0.00, 0.00, -0.096, -1.008, -0.128, 19:16:41.371, 1589044601371
160, -392.96, 0.00, 0.00, 0.00, -0.096, -1.008, -0.128, 19:16:41.371, 1589044601371
161, -359.13, 0.00, 0.00, 0.00, -0.096, -1.008, -0.128, 19:16:41.372, 1589044601372
162, -23.85, 0.00, 0.00, 0.00, -0.096, -1.008, -0.128, 19:16:41.372, 1589044601372
163, -27.17, 0.00, 0.00, 0.00, -0.096, -1.008, -0.128, 19:16:41.402, 1589044601402
164, -397.55, 0.00, 0.00, 0.00, -0.096, -1.008, -0.128, 19:16:41.402, 1589044601402
165, -348.61, 0.00, 0.00, 0.00, -0.096, -1.008, -0.128, 19:16:41.403, 1589044601403
166, -30.07, 0.00, 0.00, 0.00, -0.080, -1.008, -0.128, 19:16:41.403, 1589044601403
167, -36.21, 0.00, 0.00, 0.00, -0.080, -1.008, -0.128, 19:16:41.403, 1589044601403
168, -389.77, 0.00, 0.00, 0.00, -0.080, -1.008, -0.128, 19:16:41.403, 1589044601403
169, -364.72, 0.00, 0.00, 0.00, -0.080, -1.008, -0.128, 19:16:41.416, 1589044601416
170, -29.45, 0.00, 0.00, 0.00, -0.080, -1.008, -0.128, 19:16:41.416, 1589044601416
171, -25.20, 0.00, 0.00, 0.00, -0.080, -1.008, -0.128, 19:16:41.431, 1589044601431
172, -403.68, 0.00, 0.00, 0.00, -0.080, -1.008, -0.128, 19:16:41.431, 1589044601431
173, -365.89, 0.00, 0.00, 0.00, -0.080, -1.008, -0.128, 19:16:41.432, 1589044601432
174, -25.38, 0.00, 0.00, 0.00, -0.080, -1.008, -0.128, 19:16:41.432, 1589044601432
175, -28.13, 0.00, 0.00, 0.00, -0.080, -1.008, -0.128, 19:16:41.446, 1589044601446
176, -404.10, 0.00, 0.00, 0.00, -0.080, -1.008, -0.128, 19:16:41.446, 1589044601446
177, -360.57, 0.00, 0.00, 0.00, -0.080, -1.008, -0.128, 19:16:41.462, 1589044601462
178, -20.37, 0.00, 0.00, 0.00, -0.080, -1.008, -0.128, 19:16:41.462, 1589044601462
179, -39.06, 0.00, 0.00, 0.00, -0.080, -1.008, -0.128, 19:16:41.462, 1589044601462
180, -401.44, 0.00, 0.00, 0.00, -0.080, -1.008, -0.128, 19:16:41.462, 1589044601462
181, -350.45, 0.00, 0.00, 0.00, -0.080, -1.008, -0.128, 19:16:41.476, 1589044601476
182, -26.85, 0.00, 0.00, 0.00, -0.080, -1.008, -0.128, 19:16:41.476, 1589044601476
183, -35.56, 0.00, 0.00, 0.00, -0.080, -1.008, -0.128, 19:16:41.491, 1589044601491
184, -396.07, 0.00, 0.00, 0.00, -0.080, -1.008, -0.128, 19:16:41.491, 1589044601491
185, -363.18, 0.00, 0.00, 0.00, -0.080, -1.008, -0.128, 19:16:41.492, 1589044601492
186, -20.15, 0.00, 0.00, 0.00, -0.080, -1.008, -0.112, 19:16:41.492, 1589044601492
187, -34.58, 0.00, 0.00, 0.00, -0.080, -1.008, -0.112, 19:16:41.506, 1589044601506
188, -404.82, 0.00, 0.00, 0.00, -0.080, -1.008, -0.112, 19:16:41.506, 1589044601506
189, -345.03, 0.00, 0.00, 0.00, -0.080, -1.008, -0.112, 19:16:41.521, 1589044601521
190, -23.62, 0.00, 0.00, 0.00, -0.080, -1.008, -0.112, 19:16:41.521, 1589044601521
191, -14.79, 0.00, 0.00, 0.00, -0.080, -1.008, -0.112, 19:16:41.522, 1589044601522
192, -385.33, 0.00, 0.00, 0.00, -0.080, -1.008, -0.112, 19:16:41.522, 1589044601522
193, -359.33, 0.00, 0.00, 0.00, -0.080, -1.008, -0.112, 19:16:41.536, 1589044601536
194, -14.65, 0.00, 0.00, 0.00, -0.080, -1.008, -0.112, 19:16:41.536, 1589044601536
195, -34.38, 0.00, 0.00, 0.00, -0.080, -1.008, -0.112, 19:16:41.551, 1589044601551
196, -407.46, 0.00, 0.00, 0.00, -0.080, -1.008, -0.112, 19:16:41.551, 1589044601551
197, -356.33, 0.00, 0.00, 0.00, -0.080, -1.008, -0.112, 19:16:41.552, 1589044601552
198, -37.89, 0.00, 0.00, 0.00, -0.080, -1.008, -0.112, 19:16:41.552, 1589044601552
199, -41.25, 0.00, 0.00, 0.00, -0.080, -1.008, -0.112, 19:16:41.566, 1589044601566
200, -407.96, 0.00, 0.00, 0.00, -0.080, -1.008, -0.112, 19:16:41.566, 1589044601566
0, -359.51, 0.00, 0.00, 0.00, -0.080, -1.008, -0.112, 19:16:41.567, 1589044601567
1, -32.35, 0.00, 0.00, 0.00, -0.080, -1.008, -0.112, 19:16:41.581, 1589044601581
2, -39.37, 0.00, 0.00, 0.00, -0.080, -1.008, -0.112, 19:16:41.581, 1589044601581
3, -395.62, 0.00, 0.00, 0.00, -0.080, -1.008, -0.112, 19:16:41.596, 1589044601596
4, -361.82, 0.00, 0.00, 0.00, -0.080, -1.008, -0.112, 19:16:41.596, 1589044601596
5, -41.64, 0.00, 0.00, 0.00, -0.080, -1.008, -0.112, 19:16:41.597, 1589044601597
6, -35.96, 0.00, 0.00, 0.00, -0.080, -1.024, -0.112, 19:16:41.597, 1589044601597
7, -405.23, 0.00, 0.00, 0.00, -0.080, -1.024, -0.112, 19:16:41.611, 1589044601611
8, -371.88, 0.00, 0.00, 0.00, -0.080, -1.024, -0.112, 19:16:41.611, 1589044601611
9, -46.32, 0.00, 0.00, 0.00, -0.080, -1.024, -0.112, 19:16:41.626, 1589044601626
10, -21.12, 0.00, 0.00, 0.00, -0.080, -1.024, -0.112, 19:16:41.626, 1589044601626
11, -400.89, 0.00, 0.00, 0.00, -0.080, -1.024, -0.112, 19:16:41.627, 1589044601627
12, -374.00, 0.00, 0.00, 0.00, -0.080, -1.024, -0.112, 19:16:41.627, 1589044601627
13, -29.11, 0.00, 0.00, 0.00, -0.080, -1.024, -0.112, 19:16:41.641, 1589044601641
14, -41.18, 0.00, 0.00, 0.00, -0.080, -1.024, -0.112, 19:16:41.641, 1589044601641
15, -412.58, 0.00, 0.00, 0.00, -0.080, -1.024, -0.112, 19:16:41.673, 1589044601673
16, -368.00, 0.00, 0.00, 0.00, -0.080, -1.024, -0.112, 19:16:41.673, 1589044601673
17, -34.21, 0.00, 0.00, 0.00, -0.080, -1.024, -0.112, 19:16:41.673, 1589044601673
18, -38.80, 0.00, 0.00, 0.00, -0.080, -1.024, -0.112, 19:16:41.673, 1589044601673
19, -409.38, 0.00, 0.00, 0.00, -0.080, -1.024, -0.112, 19:16:41.674, 1589044601674
20, -358.28, 0.00, 0.00, 0.00, -0.080, -1.024, -0.112, 19:16:41.674, 1589044601674
21, -41.00, 0.00, 0.00, 0.00, -0.080, -1.024, -0.112, 19:16:41.675, 1589044601675
22, -36.62, 0.00, 0.00, 0.00, -0.080, -1.024, -0.112, 19:16:41.675, 1589044601675
23, -392.52, 0.00, 0.00, 0.00, -0.080, -1.024, -0.112, 19:16:41.686, 1589044601686
24, -366.98, 0.00, 0.00, 0.00, -0.080, -1.024, -0.112, 19:16:41.686, 1589044601686
25, -33.86, 0.00, 0.00, 0.00, -0.080, -1.024, -0.112, 19:16:41.701, 1589044601701
26, -30.64, 0.00, 0.00, 0.00, -0.080, -1.024, -0.112, 19:16:41.701, 1589044601701
27, -402.64, 0.00, 0.00, 0.00, -0.080, -1.024, -0.112, 19:16:41.749, 1589044601749
28, -353.72, 0.00, 0.00, 0.00, -0.080, -1.024, -0.112, 19:16:41.749, 1589044601749
29, -33.50, 0.00, 0.00, 0.00, -0.080, -1.024, -0.112, 19:16:41.749, 1589044601749
30, -26.78, 0.00, 0.00, 0.00, -0.080, -1.024, -0.112, 19:16:41.749, 1589044601749
31, -404.78, 0.00, 0.00, 0.00, -0.080, -1.024, -0.112, 19:16:41.750, 1589044601750
32, -373.92, 0.00, 0.00, 0.00, -0.080, -1.024, -0.112, 19:16:41.750, 1589044601750
33, -23.45, 0.00, 0.00, 0.00, -0.080, -1.024, -0.112, 19:16:41.750, 1589044601750
34, -41.29, 0.00, 0.00, 0.00, -0.080, -1.024, -0.112, 19:16:41.750, 1589044601750
35, -407.71, 0.00, 0.00, 0.00, -0.080, -1.024, -0.112, 19:16:41.778, 1589044601778
36, -359.61, 0.00, 0.00, 0.00, -0.080, -1.024, -0.112, 19:16:41.778, 1589044601778
37, -39.66, 0.00, 0.00, 0.00, -0.080, -1.024, -0.112, 19:16:41.778, 1589044601778
38, -44.60, 0.00, 0.00, 0.00, -0.080, -1.024, -0.112, 19:16:41.778, 1589044601778
39, -411.85, 0.00, 0.00, 0.00, -0.080, -1.024, -0.112, 19:16:41.779, 1589044601779
40, -361.34, 0.00, 0.00, 0.00, -0.080, -1.024, -0.112, 19:16:41.779, 1589044601779
41, -43.11, 0.00, 0.00, 0.00, -0.080, -1.024, -0.112, 19:16:41.780, 1589044601780
42, -43.95, 0.00, 0.00, 0.00, -0.080, -1.024, -0.112, 19:16:41.780, 1589044601780
43, -396.57, 0.00, 0.00, 0.00, -0.080, -1.024, -0.112, 19:16:41.791, 1589044601791
44, -359.00, 0.00, 0.00, 0.00, -0.080, -1.024, -0.112, 19:16:41.791, 1589044601791
45, -33.18, 0.00, 0.00, 0.00, -0.080, -1.024, -0.112, 19:16:41.807, 1589044601807
46, -26.29, 0.00, 0.00, 0.00, -0.080, -1.024, -0.128, 19:16:41.807, 1589044601807
47, -397.75, 0.00, 0.00, 0.00, -0.080, -1.024, -0.128, 19:16:41.807, 1589044601807
48, -367.69, 0.00, 0.00, 0.00, -0.080, -1.024, -0.128, 19:16:41.807, 1589044601807
49, -38.41, 0.00, 0.00, 0.00, -0.080, -1.024, -0.128, 19:16:41.821, 1589044601821
50, -27.09, 0.00, 0.00, 0.00, -0.080, -1.024, -0.128, 19:16:41.821, 1589044601821
51, -401.36, 0.00, 0.00, 0.00, -0.080, -1.024, -0.128, 19:16:41.836, 1589044601836
52, -366.33, 0.00, 0.00, 0.00, -0.080, -1.024, -0.128, 19:16:41.836, 1589044601836
53, -40.78, 0.00, 0.00, 0.00, -0.080, -1.024, -0.128, 19:16:41.837, 1589044601837
54, -30.14, 0.00, 0.00, 0.00, -0.080, -1.024, -0.128, 19:16:41.837, 1589044601837
55, -402.43, 0.00, 0.00, 0.00, -0.080, -1.024, -0.128, 19:16:41.851, 1589044601851
56, -369.67, 0.00, 0.00, 0.00, -0.080, -1.024, -0.128, 19:16:41.851, 1589044601851
57, -32.03, 0.00, 0.00, 0.00, -0.080, -1.024, -0.128, 19:16:41.866, 1589044601866
58, -37.81, 0.00, 0.00, 0.00, -0.080, -1.024, -0.128, 19:16:41.866, 1589044601866
59, -406.88, 0.00, 0.00, 0.00, -0.080, -1.024, -0.128, 19:16:41.867, 1589044601867
60, -372.15, 0.00, 0.00, 0.00, -0.080, -1.024, -0.128, 19:16:41.867, 1589044601867
61, -39.56, 0.00, 0.00, 0.00, -0.080, -1.024, -0.128, 19:16:41.881, 1589044601881
62, -53.85, 0.00, 0.00, 0.00, -0.080, -1.024, -0.128, 19:16:41.881, 1589044601881
63, -421.09, 0.00, 0.00, 0.00, -0.080, -1.024, -0.128, 19:16:41.896, 1589044601896
64, -373.36, 0.00, 0.00, 0.00, -0.080, -1.024, -0.128, 19:16:41.896, 1589044601896
65, -48.33, 0.00, 0.00, 0.00, -0.080, -1.024, -0.128, 19:16:41.897, 1589044601897
66, -42.06, 0.00, 0.00, 0.00, -0.096, -1.024, -0.112, 19:16:41.897, 1589044601897
67, -412.47, 0.00, 0.00, 0.00, -0.096, -1.024, -0.112, 19:16:41.911, 1589044601911
68, -379.60, 0.00, 0.00, 0.00, -0.096, -1.024, -0.112, 19:16:41.911, 1589044601911
69, -42.01, 0.00, 0.00, 0.00, -0.096, -1.024, -0.112, 19:16:41.926, 1589044601926
70, -45.91, 0.00, 0.00, 0.00, -0.096, -1.024, -0.112, 19:16:41.926, 1589044601926
71, -419.18, 0.00, 0.00, 0.00, -0.096, -1.024, -0.112, 19:16:41.927, 1589044601927
72, -372.27, 0.00, 0.00, 0.00, -0.096, -1.024, -0.112, 19:16:41.927, 1589044601927
73, -50.93, 0.00, 0.00, 0.00, -0.096, -1.024, -0.112, 19:16:41.941, 1589044601941
74, -37.61, 0.00, 0.00, 0.00, -0.096, -1.024, -0.112, 19:16:41.941, 1589044601941
75, -417.93, 0.00, 0.00, 0.00, -0.096, -1.024, -0.112, 19:16:41.957, 1589044601957
76, -379.26, 0.00, 0.00, 0.00, -0.096, -1.024, -0.112, 19:16:41.957, 1589044601957
77, -46.60, 0.00, 0.00, 0.00, -0.096, -1.024, -0.112, 19:16:41.957, 1589044601957
78, -47.17, 0.00, 0.00, 0.00, -0.096, -1.024, -0.112, 19:16:41.957, 1589044601957
79, -429.28, 0.00, 0.00, 0.00, -0.096, -1.024, -0.112, 19:16:41.971, 1589044601971
80, -391.77, 0.00, 0.00, 0.00, -0.096, -1.024, -0.112, 19:16:41.971, 1589044601971
81, -44.86, 0.00, 0.00, 0.00, -0.096, -1.024, -0.112, 19:16:41.986, 1589044601986
82, -52.68, 0.00, 0.00, 0.00, -0.096, -1.024, -0.112, 19:16:41.986, 1589044601986
83, -419.66, 0.00, 0.00, 0.00, -0.096, -1.024, -0.112, 19:16:42.001, 1589044602001
84, -376.19, 0.00, 0.00, 0.00, -0.096, -1.024, -0.112, 19:16:42.001, 1589044602001
85, -59.88, 0.00, 0.00, 0.00, -0.096, -1.024, -0.112, 19:16:42.002, 1589044602002
86, -59.51, 0.00, 0.00, 0.00, -0.096, -1.024, -0.112, 19:16:42.002, 1589044602002
87, -414.20, 0.00, 0.00, 0.00, -0.096, -1.024, -0.112, 19:16:42.016, 1589044602016
88, -397.49, 0.00, 0.00, 0.00, -0.096, -1.024, -0.112, 19:16:42.016, 1589044602016
89, -61.49, 0.00, 0.00, 0.00, -0.096, -1.024, -0.112, 19:16:42.017, 1589044602017
90, -54.41, 0.00, 0.00, 0.00, -0.096, -1.024, -0.112, 19:16:42.017, 1589044602017
91, -417.66, 0.00, 0.00, 0.00, -0.096, -1.024, -0.112, 19:16:42.031, 1589044602031
92, -392.49, 0.00, 0.00, 0.00, -0.096, -1.024, -0.112, 19:16:42.031, 1589044602031
93, -62.87, 0.00, 0.00, 0.00, -0.096, -1.024, -0.112, 19:16:42.047, 1589044602047
94, -50.63, 0.00, 0.00, 0.00, -0.096, -1.024, -0.112, 19:16:42.047, 1589044602047
95, -428.70, 0.00, 0.00, 0.00, -0.096, -1.024, -0.112, 19:16:42.047, 1589044602047
96, -390.22, 0.00, 0.00, 0.00, -0.096, -1.024, -0.112, 19:16:42.047, 1589044602047
97, -58.57, 0.00, 0.00, 0.00, -0.096, -1.024, -0.112, 19:16:42.061, 1589044602061
98, -57.51, 0.00, 0.00, 0.00, -0.096, -1.024, -0.112, 19:16:42.061, 1589044602061
99, -423.22, 0.00, 0.00, 0.00, -0.096, -1.024, -0.112, 19:16:42.076, 1589044602076
100, -399.16, 0.00, 0.00, 0.00, -0.096, -1.024, -0.112, 19:16:42.076, 1589044602076
101, -62.24, 0.00, 0.00, 0.00, -0.096, -1.024, -0.112, 19:16:42.077, 1589044602077
102, -47.78, 0.00, 0.00, 0.00, -0.096, -1.024, -0.112, 19:16:42.077, 1589044602077
103, -429.82, 0.00, 0.00, 0.00, -0.096, -1.024, -0.112, 19:16:42.091, 1589044602091
104, -388.28, 0.00, 0.00, 0.00, -0.096, -1.024, -0.112, 19:16:42.091, 1589044602091
105, -46.67, 0.00, 0.00, 0.00, -0.096, -1.024, -0.112, 19:16:42.107, 1589044602107
106, -48.16, 0.00, 0.00, 0.00, -0.096, -1.024, -0.112, 19:16:42.107, 1589044602107
107, -429.68, 0.00, 0.00, 0.00, -0.096, -1.024, -0.112, 19:16:42.107, 1589044602107
108, -388.32, 0.00, 0.00, 0.00, -0.096, -1.024, -0.112, 19:16:42.107, 1589044602107
109, -42.79, 0.00, 0.00, 0.00, -0.096, -1.024, -0.112, 19:16:42.121, 1589044602121
110, -59.02, 0.00, 0.00, 0.00, -0.096, -1.024, -0.112, 19:16:42.121, 1589044602121
111, -430.47, 0.00, 0.00, 0.00, -0.096, -1.024, -0.112, 19:16:42.136, 1589044602136
112, -381.45, 0.00, 0.00, 0.00, -0.096, -1.024, -0.112, 19:16:42.136, 1589044602136
113, -60.03, 0.00, 0.00, 0.00, -0.096, -1.024, -0.112, 19:16:42.137, 1589044602137
114, -51.95, 0.00, 0.00, 0.00, -0.096, -1.024, -0.112, 19:16:42.137, 1589044602137
115, -426.28, 0.00, 0.00, 0.00, -0.096, -1.024, -0.112, 19:16:42.151, 1589044602151
116, -388.70, 0.00, 0.00, 0.00, -0.096, -1.024, -0.112, 19:16:42.151, 1589044602151
117, -43.87, 0.00, 0.00, 0.00, -0.096, -1.024, -0.112, 19:16:42.183, 1589044602183
118, -49.57, 0.00, 0.00, 0.00, -0.096, -1.024, -0.112, 19:16:42.183, 1589044602183
119, -436.49, 0.00, 0.00, 0.00, -0.096, -1.024, -0.112, 19:16:42.184, 1589044602184
120, -397.38, 0.00, 0.00, 0.00, -0.096, -1.024, -0.112, 19:16:42.184, 1589044602184
121, -42.87, 0.00, 0.00, 0.00, -0.096, -1.024, -0.112, 19:16:42.184, 1589044602184
122, -61.50, 0.00, 0.00, 0.00, -0.096, -1.024, -0.112, 19:16:42.184, 1589044602184
123, -432.87, 0.00, 0.00, 0.00, -0.096, -1.024, -0.112, 19:16:42.185, 1589044602185
124, -394.35, 0.00, 0.00, 0.00, -0.096, -1.024, -0.112, 19:16:42.185, 1589044602185
125, -68.14, 0.00, 0.00, 0.00, -0.096, -1.024, -0.112, 19:16:42.196, 1589044602196
126, -43.39, 0.00, 0.00, 0.00, -0.096, -1.024, -0.112, 19:16:42.196, 1589044602196
127, -437.51, 0.00, 0.00, 0.00, -0.096, -1.024, -0.112, 19:16:42.211, 1589044602211
128, -400.07, 0.00, 0.00, 0.00, -0.096, -1.024, -0.112, 19:16:42.211, 1589044602211
129, -53.72, 0.00, 0.00, 0.00, -0.096, -1.024, -0.112, 19:16:42.226, 1589044602226
130, -56.97, 0.00, 0.00, 0.00, -0.096, -1.024, -0.112, 19:16:42.226, 1589044602226
131, -442.14, 0.00, 0.00, 0.00, -0.096, -1.024, -0.112, 19:16:42.227, 1589044602227
132, -401.08, 0.00, 0.00, 0.00, -0.096, -1.024, -0.112, 19:16:42.227, 1589044602227
133, -52.35, 0.00, 0.00, 0.00, -0.096, -1.024, -0.112, 19:16:42.241, 1589044602241
134, -60.43, 0.00, 0.00, 0.00, -0.096, -1.024, -0.112, 19:16:42.241, 1589044602241
135, -435.42, 0.00, 0.00, 0.00, -0.096, -1.024, -0.112, 19:16:42.256, 1589044602256
136, -389.92, 0.00, 0.00, 0.00, -0.096, -1.024, -0.112, 19:16:42.256, 1589044602256
137, -61.09, 0.00, 0.00, 0.00, -0.096, -1.024, -0.112, 19:16:42.257, 1589044602257
138, -62.38, 0.00, 0.00, 0.00, -0.096, -1.024, -0.112, 19:16:42.257, 1589044602257
139, -429.01, 0.00, 0.00, 0.00, -0.096, -1.024, -0.112, 19:16:42.271, 1589044602271
140, -398.54, 0.00, 0.00, 0.00, -0.096, -1.024, -0.112, 19:16:42.271, 1589044602271
141, -60.03, 0.00, 0.00, 0.00, -0.096, -1.024, -0.112, 19:16:42.287, 1589044602287
142, -59.92, 0.00, 0.00, 0.00, -0.096, -1.024, -0.112, 19:16:42.287, 1589044602287
143, -434.18, 0.00, 0.00, 0.00, -0.096, -1.024, -0.112, 19:16:42.288, 1589044602288
144, -408.47, 0.00, 0.00, 0.00, -0.096, -1.024, -0.112, 19:16:42.288, 1589044602288
145, -57.40, 0.00, 0.00, 0.00, -0.096, -1.024, -0.112, 19:16:42.301, 1589044602301
146, -47.05, 0.00, 0.00, 0.00, -0.096, -1.024, -0.112, 19:16:42.301, 1589044602301
147, -445.57, 0.00, 0.00, 0.00, -0.096, -1.024, -0.112, 19:16:42.333, 1589044602333
148, -386.40, 0.00, 0.00, 0.00, -0.096, -1.024, -0.112, 19:16:42.333, 1589044602333
149, -56.09, 0.00, 0.00, 0.00, -0.096, -1.024, -0.112, 19:16:42.333, 1589044602333
150, -57.33, 0.00, 0.00, 0.00, -0.096, -1.024, -0.112, 19:16:42.333, 1589044602333
151, -433.58, 0.00, 0.00, 0.00, -0.096, -1.024, -0.112, 19:16:42.334, 1589044602334
152, -399.92, 0.00, 0.00, 0.00, -0.096, -1.024, -0.112, 19:16:42.334, 1589044602334
153, -54.33, 0.00, 0.00, 0.00, -0.096, -1.024, -0.112, 19:16:42.335, 1589044602335
154, -46.92, 0.00, 0.00, 0.00, -0.096, -1.024, -0.112, 19:16:42.335, 1589044602335
155, -428.41, 0.00, 0.00, 0.00, -0.096, -1.024, -0.112, 19:16:42.346, 1589044602346
156, -391.02, 0.00, 0.00, 0.00, -0.096, -1.024, -0.112, 19:16:42.346, 1589044602346
157, -55.03, 0.00, 0.00, 0.00, -0.096, -1.024, -0.112, 19:16:42.361, 1589044602361
158, -43.54, 0.00, 0.00, 0.00, -0.096, -1.024, -0.112, 19:16:42.361, 1589044602361
159, -433.03, 0.00, 0.00, 0.00, -0.096, -1.024, -0.112, 19:16:42.376, 1589044602376
160, -400.52, 0.00, 0.00, 0.00, -0.096, -1.024, -0.112, 19:16:42.376, 1589044602376
161, -54.85, 0.00, 0.00, 0.00, -0.096, -1.024, -0.112, 19:16:42.377, 1589044602377
162, -51.50, 0.00, 0.00, 0.00, -0.096, -1.024, -0.112, 19:16:42.377, 1589044602377
163, -421.60, 0.00, 0.00, 0.00, -0.096, -1.024, -0.112, 19:16:42.408, 1589044602408
164, -395.52, 0.00, 0.00, 0.00, -0.096, -1.024, -0.112, 19:16:42.408, 1589044602408
165, -46.95, 0.00, 0.00, 0.00, -0.096, -1.024, -0.112, 19:16:42.409, 1589044602409
166, -55.51, 0.00, 0.00, 0.00, -0.080, -1.024, -0.096, 19:16:42.409, 1589044602409
167, -438.78, 0.00, 0.00, 0.00, -0.080, -1.024, -0.096, 19:16:42.409, 1589044602409
168, -392.49, 0.00, 0.00, 0.00, -0.080, -1.024, -0.096, 19:16:42.409, 1589044602409
169, -47.06, 0.00, 0.00, 0.00, -0.080, -1.024, -0.096, 19:16:42.421, 1589044602421
170, -45.78, 0.00, 0.00, 0.00, -0.080, -1.024, -0.096, 19:16:42.421, 1589044602421
171, -426.33, 0.00, 0.00, 0.00, -0.080, -1.024, -0.096, 19:16:42.436, 1589044602436
172, -400.86, 0.00, 0.00, 0.00, -0.080, -1.024, -0.096, 19:16:42.436, 1589044602436
173, -52.12, 0.00, 0.00, 0.00, -0.080, -1.024, -0.096, 19:16:42.437, 1589044602437
174, -46.47, 0.00, 0.00, 0.00, -0.080, -1.024, -0.096, 19:16:42.437, 1589044602437
175, -447.94, 0.00, 0.00, 0.00, -0.080, -1.024, -0.096, 19:16:42.451, 1589044602451
176, -403.73, 0.00, 0.00, 0.00, -0.080, -1.024, -0.096, 19:16:42.451, 1589044602451
177, -52.70, 0.00, 0.00, 0.00, -0.080, -1.024, -0.096, 19:16:42.483, 1589044602483
178, -46.97, 0.00, 0.00, 0.00, -0.080, -1.024, -0.096, 19:16:42.483, 1589044602483
179, -440.37, 0.00, 0.00, 0.00, -0.080, -1.024, -0.096, 19:16:42.484, 1589044602484
180, -399.24, 0.00, 0.00, 0.00, -0.080, -1.024, -0.096, 19:16:42.484, 1589044602484
181, -35.32, 0.00, 0.00, 0.00, -0.080, -1.024, -0.096, 19:16:42.484, 1589044602484
182, -47.24, 0.00, 0.00, 0.00, -0.080, -1.024, -0.096, 19:16:42.484, 1589044602484
183, -443.06, 0.00, 0.00, 0.00, -0.080, -1.024, -0.096, 19:16:42.485, 1589044602485
184, -395.93, 0.00, 0.00, 0.00, -0.080, -1.024, -0.096, 19:16:42.485, 1589044602485
185, -59.06, 0.00, 0.00, 0.00, -0.080, -1.024, -0.096, 19:16:42.511, 1589044602511
186, -55.33, 0.00, 0.00, 0.00, -0.080, -1.040, -0.080, 19:16:42.511, 1589044602511
187, -444.38, 0.00, 0.00, 0.00, -0.080, -1.040, -0.080, 19:16:42.512, 1589044602512
188, -385.24, 0.00, 0.00, 0.00, -0.080, -1.040, -0.080, 19:16:42.512, 1589044602512
189, -56.38, 0.00, 0.00, 0.00, -0.080, -1.040, -0.080, 19:16:42.527, 1589044602527
190, -40.96, 0.00, 0.00, 0.00, -0.080, -1.040, -0.080, 19:16:42.527, 1589044602527
191, -418.84, 0.00, 0.00, 0.00, -0.080, -1.040, -0.080, 19:16:42.528, 1589044602528
192, -403.81, 0.00, 0.00, 0.00, -0.080, -1.040, -0.080, 19:16:42.528, 1589044602528
193, -57.49, 0.00, 0.00, 0.00, -0.080, -1.040, -0.080, 19:16:42.541, 1589044602541
194, -42.81, 0.00, 0.00, 0.00, -0.080, -1.040, -0.080, 19:16:42.541, 1589044602541
195, -442.09, 0.00, 0.00, 0.00, -0.080, -1.040, -0.080, 19:16:42.573, 1589044602573
196, -398.75, 0.00, 0.00, 0.00, -0.080, -1.040, -0.080, 19:16:42.573, 1589044602573
197, -55.86, 0.00, 0.00, 0.00, -0.080, -1.040, -0.080, 19:16:42.573, 1589044602573
198, -43.48, 0.00, 0.00, 0.00, -0.080, -1.040, -0.080, 19:16:42.573, 1589044602573
199, -446.11, 0.00, 0.00, 0.00, -0.080, -1.040, -0.080, 19:16:42.574, 1589044602574
200, -406.02, 0.00, 0.00, 0.00, -0.080, -1.040, -0.080, 19:16:42.574, 1589044602574
0, -41.36, 0.00, 0.00, 0.00, -0.080, -1.040, -0.080, 19:16:42.575, 1589044602575
1, -48.34, 0.00, 0.00, 0.00, -0.080, -1.040, -0.080, 19:16:42.586, 1589044602586
2, -442.68, 0.00, 0.00, 0.00, -0.080, -1.040, -0.080, 19:16:42.586, 1589044602586
3, -392.63, 0.00, 0.00, 0.00, -0.080, -1.040, -0.080, 19:16:42.601, 1589044602601
4, -63.33, 0.00, 0.00, 0.00, -0.080, -1.040, -0.080, 19:16:42.601, 1589044602601
5, -63.95, 0.00, 0.00, 0.00, -0.080, -1.040, -0.080, 19:16:42.603, 1589044602603
6, -448.02, 0.00, 0.00, 0.00, -0.080, -1.040, -0.096, 19:16:42.603, 1589044602603
7, -398.20, 0.00, 0.00, 0.00, -0.080, -1.040, -0.096, 19:16:42.615, 1589044602615
8, -58.21, 0.00, 0.00, 0.00, -0.080, -1.040, -0.096, 19:16:42.615, 1589044602615
9, -48.47, 0.00, 0.00, 0.00, -0.080, -1.040, -0.096, 19:16:42.631, 1589044602631
10, -437.19, 0.00, 0.00, 0.00, -0.080, -1.040, -0.096, 19:16:42.631, 1589044602631
11, -401.46, 0.00, 0.00, 0.00, -0.080, -1.040, -0.096, 19:16:42.632, 1589044602632
12, -44.36, 0.00, 0.00, 0.00, -0.080, -1.040, -0.096, 19:16:42.632, 1589044602632
13, -44.54, 0.00, 0.00, 0.00, -0.080, -1.040, -0.096, 19:16:42.679, 1589044602679
14, -438.28, 0.00, 0.00, 0.00, -0.080, -1.040, -0.096, 19:16:42.679, 1589044602679
15, -405.35, 0.00, 0.00, 0.00, -0.080, -1.040, -0.096, 19:16:42.680, 1589044602680
16, -47.56, 0.00, 0.00, 0.00, -0.080, -1.040, -0.096, 19:16:42.680, 1589044602680
17, -60.52, 0.00, 0.00, 0.00, -0.080, -1.040, -0.096, 19:16:42.680, 1589044602680
18, -442.70, 0.00, 0.00, 0.00, -0.080, -1.040, -0.096, 19:16:42.680, 1589044602680
19, -391.81, 0.00, 0.00, 0.00, -0.080, -1.040, -0.096, 19:16:42.680, 1589044602680
20, -60.55, 0.00, 0.00, 0.00, -0.080, -1.040, -0.096, 19:16:42.680, 1589044602680
21, -52.90, 0.00, 0.00, 0.00, -0.080, -1.040, -0.096, 19:16:42.691, 1589044602691
22, -446.93, 0.00, 0.00, 0.00, -0.080, -1.040, -0.096, 19:16:42.691, 1589044602691
23, -413.28, 0.00, 0.00, 0.00, -0.080, -1.040, -0.096, 19:16:42.692, 1589044602692
24, -46.37, 0.00, 0.00, 0.00, -0.080, -1.040, -0.096, 19:16:42.692, 1589044602692
25, -47.34, 0.00, 0.00, 0.00, -0.080, -1.040, -0.096, 19:16:42.711, 1589044602711
26, -445.92, 0.00, 0.00, 0.00, -0.080, -1.040, -0.096, 19:16:42.711, 1589044602711
27, -411.94, 0.00, 0.00, 0.00, -0.080, -1.040, -0.096, 19:16:42.721, 1589044602721
28, -48.76, 0.00, 0.00, 0.00, -0.080, -1.040, -0.096, 19:16:42.721, 1589044602721
29, -55.50, 0.00, 0.00, 0.00, -0.080, -1.040, -0.096, 19:16:42.736, 1589044602736
30, -447.91, 0.00, 0.00, 0.00, -0.080, -1.040, -0.096, 19:16:42.736, 1589044602736
31, -406.43, 0.00, 0.00, 0.00, -0.080, -1.040, -0.096, 19:16:42.737, 1589044602737
32, -56.79, 0.00, 0.00, 0.00, -0.080, -1.040, -0.096, 19:16:42.737, 1589044602737
33, -44.68, 0.00, 0.00, 0.00, -0.080, -1.040, -0.096, 19:16:42.751, 1589044602751
34, -448.35, 0.00, 0.00, 0.00, -0.080, -1.040, -0.096, 19:16:42.751, 1589044602751
35, -411.60, 0.00, 0.00, 0.00, -0.080, -1.040, -0.096, 19:16:42.752, 1589044602752
36, -54.18, 0.00, 0.00, 0.00, -0.080, -1.040, -0.096, 19:16:42.752, 1589044602752
37, -63.71, 0.00, 0.00, 0.00, -0.080, -1.040, -0.096, 19:16:42.766, 1589044602766
38, -452.72, 0.00, 0.00, 0.00, -0.080, -1.040, -0.096, 19:16:42.766, 1589044602766
39, -410.09, 0.00, 0.00, 0.00, -0.080, -1.040, -0.096, 19:16:42.782, 1589044602782
40, -59.10, 0.00, 0.00, 0.00, -0.080, -1.040, -0.096, 19:16:42.782, 1589044602782
41, -62.65, 0.00, 0.00, 0.00, -0.080, -1.040, -0.096, 19:16:42.782, 1589044602782
42, -451.12, 0.00, 0.00, 0.00, -0.080, -1.040, -0.096, 19:16:42.782, 1589044602782
43, -398.46, 0.00, 0.00, 0.00, -0.080, -1.040, -0.096, 19:16:42.796, 1589044602796
44, -68.00, 0.00, 0.00, 0.00, -0.080, -1.040, -0.096, 19:16:42.796, 1589044602796
45, -62.86, 0.00, 0.00, 0.00, -0.080, -1.040, -0.096, 19:16:42.811, 1589044602811
46, -438.65, 0.00, 0.00, 0.00, -0.080, -1.040, -0.096, 19:16:42.811, 1589044602811
47, -415.88, 0.00, 0.00, 0.00, -0.080, -1.040, -0.096, 19:16:42.812, 1589044602812
48, -63.29, 0.00, 0.00, 0.00, -0.080, -1.040, -0.096, 19:16:42.812, 1589044602812
49, -59.23, 0.00, 0.00, 0.00, -0.080, -1.040, -0.096, 19:16:42.826, 1589044602826
50, -450.29, 0.00, 0.00, 0.00, -0.080, -1.040, -0.096, 19:16:42.826, 1589044602826
51, -410.40, 0.00, 0.00, 0.00, -0.080, -1.040, -0.096, 19:16:42.842, 1589044602842
52, -60.53, 0.00, 0.00, 0.00, -0.080, -1.040, -0.096, 19:16:42.842, 1589044602842
53, -45.64, 0.00, 0.00, 0.00, -0.080, -1.040, -0.096, 19:16:42.842, 1589044602842
54, -450.93, 0.00, 0.00, 0.00, -0.080, -1.040, -0.096, 19:16:42.842, 1589044602842
55, -425.16, 0.00, 0.00, 0.00, -0.080, -1.040, -0.096, 19:16:42.856, 1589044602856
56, -63.21, 0.00, 0.00, 0.00, -0.080, -1.040, -0.096, 19:16:42.856, 1589044602856
57, -59.17, 0.00, 0.00, 0.00, -0.080, -1.040, -0.096, 19:16:42.871, 1589044602871
58, -454.33, 0.00, 0.00, 0.00, -0.080, -1.040, -0.096, 19:16:42.871, 1589044602871
59, -406.41, 0.00, 0.00, 0.00, -0.080, -1.040, -0.096, 19:16:42.872, 1589044602872
60, -66.95, 0.00, 0.00, 0.00, -0.080, -1.040, -0.096, 19:16:42.872, 1589044602872
61, -65.49, 0.00, 0.00, 0.00, -0.080, -1.040, -0.096, 19:16:42.886, 1589044602886
62, -457.27, 0.00, 0.00, 0.00, -0.080, -1.040, -0.096, 19:16:42.886, 1589044602886
63, -420.61, 0.00, 0.00, 0.00, -0.080, -1.040, -0.096, 19:16:42.901, 1589044602901
64, -79.93, 0.00, 0.00, 0.00, -0.080, -1.040, -0.096, 19:16:42.901, 1589044602901
65, -71.96, 0.00, 0.00, 0.00, -0.080, -1.040, -0.096, 19:16:42.902, 1589044602902
66, -450.67, 0.00, 0.00, 0.00, -0.080, -1.040, -0.096, 19:16:42.902, 1589044602902
67, -427.32, 0.00, 0.00, 0.00, -0.080, -1.040, -0.096, 19:16:42.916, 1589044602916
68, -76.64, 0.00, 0.00, 0.00, -0.080, -1.040, -0.096, 19:16:42.916, 1589044602916
69, -72.76, 0.00, 0.00, 0.00, -0.080, -1.040, -0.096, 19:16:42.931, 1589044602931
70, -461.74, 0.00, 0.00, 0.00, -0.080, -1.040, -0.096, 19:16:42.931, 1589044602931
71, -418.39, 0.00, 0.00, 0.00, -0.080, -1.040, -0.096, 19:16:42.933, 1589044602933
72, -78.18, 0.00, 0.00, 0.00, -0.080, -1.040, -0.096, 19:16:42.933, 1589044602933
73, -74.83, 0.00, 0.00, 0.00, -0.080, -1.040, -0.096, 19:16:42.946, 1589044602946
74, -456.37, 0.00, 0.00, 0.00, -0.080, -1.040, -0.096, 19:16:42.946, 1589044602946
75, -430.79, 0.00, 0.00, 0.00, -0.080, -1.040, -0.096, 19:16:42.963, 1589044602963
76, -82.38, 0.00, 0.00, 0.00, -0.080, -1.040, -0.096, 19:16:42.963, 1589044602963
77, -73.61, 0.00, 0.00, 0.00, -0.080, -1.040, -0.096, 19:16:42.964, 1589044602964
78, -470.32, 0.00, 0.00, 0.00, -0.080, -1.040, -0.096, 19:16:42.964, 1589044602964
79, -432.52, 0.00, 0.00, 0.00, -0.080, -1.040, -0.096, 19:16:42.976, 1589044602976
80, -76.92, 0.00, 0.00, 0.00, -0.080, -1.040, -0.096, 19:16:42.976, 1589044602976
81, -63.92, 0.00, 0.00, 0.00, -0.080, -1.040, -0.096, 19:16:42.992, 1589044602992
82, -469.36, 0.00, 0.00, 0.00, -0.080, -1.040, -0.096, 19:16:42.992, 1589044602992
83, -430.38, 0.00, 0.00, 0.00, -0.080, -1.040, -0.096, 19:16:42.992, 1589044602992
84, -65.90, 0.00, 0.00, 0.00, -0.080, -1.040, -0.096, 19:16:42.992, 1589044602992
85, -76.81, 0.00, 0.00, 0.00, -0.080, -1.040, -0.096, 19:16:43.006, 1589044603006
86, -471.29, 0.00, 0.00, 0.00, -0.080, -1.040, -0.080, 19:16:43.006, 1589044603006
87, -431.15, 0.00, 0.00, 0.00, -0.080, -1.040, -0.080, 19:16:43.021, 1589044603021
88, -83.62, 0.00, 0.00, 0.00, -0.080, -1.040, -0.080, 19:16:43.021, 1589044603021
89, -83.81, 0.00, 0.00, 0.00, -0.080, -1.040, -0.080, 19:16:43.022, 1589044603022
90, -469.77, 0.00, 0.00, 0.00, -0.080, -1.040, -0.080, 19:16:43.022, 1589044603022
91, -425.00, 0.00, 0.00, 0.00, -0.080, -1.040, -0.080, 19:16:43.036, 1589044603036
92, -86.11, 0.00, 0.00, 0.00, -0.080, -1.040, -0.080, 19:16:43.036, 1589044603036
93, -76.23, 0.00, 0.00, 0.00, -0.080, -1.040, -0.080, 19:16:43.051, 1589044603051
94, -461.09, 0.00, 0.00, 0.00, -0.080, -1.040, -0.080, 19:16:43.051, 1589044603051
95, -432.28, 0.00, 0.00, 0.00, -0.080, -1.040, -0.080, 19:16:43.066, 1589044603066
96, -82.98, 0.00, 0.00, 0.00, -0.080, -1.040, -0.080, 19:16:43.066, 1589044603066
97, -74.25, 0.00, 0.00, 0.00, -0.080, -1.040, -0.080, 19:16:43.067, 1589044603067
98, -459.69, 0.00, 0.00, 0.00, -0.080, -1.040, -0.080, 19:16:43.067, 1589044603067
99, -430.23, 0.00, 0.00, 0.00, -0.080, -1.040, -0.080, 19:16:43.081, 1589044603081
100, -83.18, 0.00, 0.00, 0.00, -0.080, -1.040, -0.080, 19:16:43.081, 1589044603081
101, -69.37, 0.00, 0.00, 0.00, -0.080, -1.040, -0.080, 19:16:43.082, 1589044603082
102, -467.36, 0.00, 0.00, 0.00, -0.080, -1.040, -0.080, 19:16:43.082, 1589044603082
103, -430.43, 0.00, 0.00, 0.00, -0.080, -1.040, -0.080, 19:16:43.096, 1589044603096
104, -64.58, 0.00, 0.00, 0.00, -0.080, -1.040, -0.080, 19:16:43.096, 1589044603096
105, -66.47, 0.00, 0.00, 0.00, -0.080, -1.040, -0.080, 19:16:43.111, 1589044603111
106, -459.09, 0.00, 0.00, 0.00, -0.080, -1.040, -0.080, 19:16:43.111, 1589044603111
107, -425.36, 0.00, 0.00, 0.00, -0.080, -1.040, -0.080, 19:16:43.112, 1589044603112
108, -64.88, 0.00, 0.00, 0.00, -0.080, -1.040, -0.080, 19:16:43.112, 1589044603112
109, -64.79, 0.00, 0.00, 0.00, -0.080, -1.040, -0.080, 19:16:43.126, 1589044603126
110, -468.80, 0.00, 0.00, 0.00, -0.080, -1.040, -0.080, 19:16:43.126, 1589044603126
111, -419.93, 0.00, 0.00, 0.00, -0.080, -1.040, -0.080, 19:16:43.141, 1589044603141
112, -74.14, 0.00, 0.00, 0.00, -0.080, -1.040, -0.080, 19:16:43.141, 1589044603141
113, -58.26, 0.00, 0.00, 0.00, -0.080, -1.040, -0.080, 19:16:43.142, 1589044603142
114, -458.79, 0.00, 0.00, 0.00, -0.080, -1.040, -0.080, 19:16:43.142, 1589044603142
115, -428.62, 0.00, 0.00, 0.00, -0.080, -1.040, -0.080, 19:16:43.156, 1589044603156
116, -69.67, 0.00, 0.00, 0.00, -0.080, -1.040, -0.080, 19:16:43.156, 1589044603156
117, -65.25, 0.00, 0.00, 0.00, -0.080, -1.040, -0.080, 19:16:43.171, 1589044603171
118, -460.68, 0.00, 0.00, 0.00, -0.080, -1.040, -0.080, 19:16:43.171, 1589044603171
119, -427.24, 0.00, 0.00, 0.00, -0.080, -1.040, -0.080, 19:16:43.172, 1589044603172
120, -62.02, 0.00, 0.00, 0.00, -0.080, -1.040, -0.080, 19:16:43.172, 1589044603172
121, -68.01, 0.00, 0.00, 0.00, -0.080, -1.040, -0.080, 19:16:43.186, 1589044603186
122, -467.72, 0.00, 0.00, 0.00, -0.080, -1.040, -0.080, 19:16:43.186, 1589044603186
123, -415.42, 0.00, 0.00, 0.00, -0.080, -1.040, -0.080, 19:16:43.201, 1589044603201
124, -80.71, 0.00, 0.00, 0.00, -0.080, -1.040, -0.080, 19:16:43.201, 1589044603201
125, -71.19, 0.00, 0.00, 0.00, -0.080, -1.040, -0.080, 19:16:43.202, 1589044603202
126, -450.80, 0.00, 0.00, 0.00, -0.080, -1.040, -0.080, 19:16:43.202, 1589044603202
127, -428.61, 0.00, 0.00, 0.00, -0.080, -1.040, -0.080, 19:16:43.215, 1589044603215
128, -85.84, 0.00, 0.00, 0.00, -0.080, -1.040, -0.080, 19:16:43.215, 1589044603215
129, -61.04, 0.00, 0.00, 0.00, -0.080, -1.040, -0.080, 19:16:43.232, 1589044603232
130, -453.07, 0.00, 0.00, 0.00, -0.080, -1.040, -0.080, 19:16:43.232, 1589044603232
131, -426.01, 0.00, 0.00, 0.00, -0.080, -1.040, -0.080, 19:16:43.232, 1589044603232
132, -79.38, 0.00, 0.00, 0.00, -0.080, -1.040, -0.080, 19:16:43.232, 1589044603232
133, -65.70, 0.00, 0.00, 0.00, -0.080, -1.040, -0.080, 19:16:43.246, 1589044603246
134, -461.08, 0.00, 0.00, 0.00, -0.080, -1.040, -0.080, 19:16:43.246, 1589044603246
135, -424.52, 0.00, 0.00, 0.00, -0.080, -1.040, -0.080, 19:16:43.261, 1589044603261
136, -79.91, 0.00, 0.00, 0.00, -0.080, -1.040, -0.080, 19:16:43.261, 1589044603261
137, -72.40, 0.00, 0.00, 0.00, -0.080, -1.040, -0.080, 19:16:43.262, 1589044603262
138, -453.17, 0.00, 0.00, 0.00, -0.080, -1.040, -0.080, 19:16:43.262, 1589044603262
139, -424.50, 0.00, 0.00, 0.00, -0.080, -1.040, -0.080, 19:16:43.276, 1589044603276
140, -82.46, 0.00, 0.00, 0.00, -0.080, -1.040, -0.080, 19:16:43.276, 1589044603276
141, -74.39, 0.00, 0.00, 0.00, -0.080, -1.040, -0.080, 19:16:43.292, 1589044603292
142, -451.35, 0.00, 0.00, 0.00, -0.080, -1.040, -0.080, 19:16:43.292, 1589044603292
143, -439.34, 0.00, 0.00, 0.00, -0.080, -1.040, -0.080, 19:16:43.293, 1589044603293
144, -78.31, 0.00, 0.00, 0.00, -0.080, -1.040, -0.080, 19:16:43.293, 1589044603293
145, -58.30, 0.00, 0.00, 0.00, -0.080, -1.040, -0.080, 19:16:43.306, 1589044603306
146, -458.88, 0.00, 0.00, 0.00, -0.080, -1.040, -0.096, 19:16:43.306, 1589044603306
147, -428.96, 0.00, 0.00, 0.00, -0.080, -1.040, -0.096, 19:16:43.321, 1589044603321
148, -84.41, 0.00, 0.00, 0.00, -0.080, -1.040, -0.096, 19:16:43.321, 1589044603321
149, -75.53, 0.00, 0.00, 0.00, -0.080, -1.040, -0.096, 19:16:43.322, 1589044603322
150, -451.86, 0.00, 0.00, 0.00, -0.080, -1.040, -0.096, 19:16:43.322, 1589044603322
151, -433.51, 0.00, 0.00, 0.00, -0.080, -1.040, -0.096, 19:16:43.336, 1589044603336
152, -82.17, 0.00, 0.00, 0.00, -0.080, -1.040, -0.096, 19:16:43.336, 1589044603336
153, -56.09, 0.00, 0.00, 0.00, -0.080, -1.040, -0.096, 19:16:43.351, 1589044603351
154, -462.39, 0.00, 0.00, 0.00, -0.080, -1.040, -0.096, 19:16:43.351, 1589044603351
155, -418.19, 0.00, 0.00, 0.00, -0.080, -1.040, -0.096, 19:16:43.352, 1589044603352
156, -83.76, 0.00, 0.00, 0.00, -0.080, -1.040, -0.096, 19:16:43.352, 1589044603352
157, -71.37, 0.00, 0.00, 0.00, -0.080, -1.040, -0.096, 19:16:43.366, 1589044603366
158, -452.38, 0.00, 0.00, 0.00, -0.080, -1.040, -0.096, 19:16:43.366, 1589044603366
159, -435.05, 0.00, 0.00, 0.00, -0.080, -1.040, -0.096, 19:16:43.381, 1589044603381
160, -87.52, 0.00, 0.00, 0.00, -0.080, -1.040, -0.096, 19:16:43.381, 1589044603381
161, -70.83, 0.00, 0.00, 0.00, -0.080, -1.040, -0.096, 19:16:43.382, 1589044603382
162, -448.17, 0.00, 0.00, 0.00, -0.080, -1.040, -0.096, 19:16:43.382, 1589044603382
163, -431.90, 0.00, 0.00, 0.00, -0.080, -1.040, -0.096, 19:16:43.395, 1589044603395
164, -81.09, 0.00, 0.00, 0.00, -0.080, -1.040, -0.096, 19:16:43.395, 1589044603395
165, -58.62, 0.00, 0.00, 0.00, -0.080, -1.040, -0.096, 19:16:43.411, 1589044603411
166, -461.63, 0.00, 0.00, 0.00, -0.080, -1.040, -0.096, 19:16:43.411, 1589044603411
167, -429.54, 0.00, 0.00, 0.00, -0.080, -1.040, -0.096, 19:16:43.412, 1589044603412
168, -68.63, 0.00, 0.00, 0.00, -0.080, -1.040, -0.096, 19:16:43.412, 1589044603412
169, -65.85, 0.00, 0.00, 0.00, -0.080, -1.040, -0.096, 19:16:43.442, 1589044603442
170, -460.75, 0.00, 0.00, 0.00, -0.080, -1.040, -0.096, 19:16:43.442, 1589044603442
171, -427.15, 0.00, 0.00, 0.00, -0.080, -1.040, -0.096, 19:16:43.443, 1589044603443
172, -63.93, 0.00, 0.00, 0.00, -0.080, -1.040, -0.096, 19:16:43.443, 1589044603443
173, -72.83, 0.00, 0.00, 0.00, -0.080, -1.040, -0.096, 19:16:43.443, 1589044603443
174, -461.22, 0.00, 0.00, 0.00, -0.080, -1.040, -0.096, 19:16:43.443, 1589044603443
175, -421.81, 0.00, 0.00, 0.00, -0.080, -1.040, -0.096, 19:16:43.456, 1589044603456
176, -81.64, 0.00, 0.00, 0.00, -0.080, -1.040, -0.096, 19:16:43.456, 1589044603456
177, -67.79, 0.00, 0.00, 0.00, -0.080, -1.040, -0.096, 19:16:43.471, 1589044603471
178, -468.02, 0.00, 0.00, 0.00, -0.080, -1.040, -0.096, 19:16:43.471, 1589044603471
179, -434.07, 0.00, 0.00, 0.00, -0.080, -1.040, -0.096, 19:16:43.472, 1589044603472
180, -70.22, 0.00, 0.00, 0.00, -0.080, -1.040, -0.096, 19:16:43.472, 1589044603472
181, -71.93, 0.00, 0.00, 0.00, -0.080, -1.040, -0.096, 19:16:43.486, 1589044603486
182, -459.50, 0.00, 0.00, 0.00, -0.080, -1.040, -0.096, 19:16:43.486, 1589044603486
183, -434.89, 0.00, 0.00, 0.00, -0.080, -1.040, -0.096, 19:16:43.501, 1589044603501
184, -81.41, 0.00, 0.00, 0.00, -0.080, -1.040, -0.096, 19:16:43.501, 1589044603501
185, -75.01, 0.00, 0.00, 0.00, -0.080, -1.040, -0.096, 19:16:43.502, 1589044603502
186, -473.29, 0.00, 0.00, 0.00, -0.080, -1.024, -0.096, 19:16:43.502, 1589044603502
187, -415.26, 0.00, 0.00, 0.00, -0.080, -1.024, -0.096, 19:16:43.516, 1589044603516
188, -75.53, 0.00, 0.00, 0.00, -0.080, -1.024, -0.096, 19:16:43.516, 1589044603516
189, -74.28, 0.00, 0.00, 0.00, -0.080, -1.024, -0.096, 19:16:43.531, 1589044603531
190, -449.73, 0.00, 0.00, 0.00, -0.080, -1.024, -0.096, 19:16:43.531, 1589044603531
191, -443.57, 0.00, 0.00, 0.00, -0.080, -1.024, -0.096, 19:16:43.532, 1589044603532
192, -97.97, 0.00, 0.00, 0.00, -0.080, -1.024, -0.096, 19:16:43.532, 1589044603532
193, -87.50, 0.00, 0.00, 0.00, -0.080, -1.024, -0.096, 19:16:43.546, 1589044603546
194, -466.83, 0.00, 0.00, 0.00, -0.080, -1.024, -0.096, 19:16:43.546, 1589044603546
195, -437.72, 0.00, 0.00, 0.00, -0.080, -1.024, -0.096, 19:16:43.561, 1589044603561
196, -78.37, 0.00, 0.00, 0.00, -0.080, -1.024, -0.096, 19:16:43.561, 1589044603561
197, -73.95, 0.00, 0.00, 0.00, -0.080, -1.024, -0.096, 19:16:43.562, 1589044603562
198, -474.62, 0.00, 0.00, 0.00, -0.080, -1.024, -0.096, 19:16:43.562, 1589044603562
199, -431.32, 0.00, 0.00, 0.00, -0.080, -1.024, -0.096, 19:16:43.577, 1589044603577
200, -93.57, 0.00, 0.00, 0.00, -0.080, -1.024, -0.096, 19:16:43.577, 1589044603577
0, -81.84, 0.00, 0.00, 0.00, -0.080, -1.024, -0.096, 19:16:43.577, 1589044603577
1, -460.14, 0.00, 0.00, 0.00, -0.080, -1.024, -0.096, 19:16:43.591, 1589044603591
2, -438.58, 0.00, 0.00, 0.00, -0.080, -1.024, -0.096, 19:16:43.591, 1589044603591
3, -86.16, 0.00, 0.00, 0.00, -0.080, -1.024, -0.096, 19:16:43.623, 1589044603623
4, -77.69, 0.00, 0.00, 0.00, -0.080, -1.024, -0.096, 19:16:43.623, 1589044603623
5, -454.86, 0.00, 0.00, 0.00, -0.080, -1.024, -0.096, 19:16:43.623, 1589044603623
6, -436.88, 0.00, 0.00, 0.00, -0.080, -1.040, -0.096, 19:16:43.623, 1589044603623
7, -92.95, 0.00, 0.00, 0.00, -0.080, -1.040, -0.096, 19:16:43.625, 1589044603625
8, -78.06, 0.00, 0.00, 0.00, -0.080, -1.040, -0.096, 19:16:43.625, 1589044603625
9, -476.34, 0.00, 0.00, 0.00, -0.080, -1.040, -0.096, 19:16:43.625, 1589044603625
10, -440.70, 0.00, 0.00, 0.00, -0.080, -1.040, -0.096, 19:16:43.625, 1589044603625
11, -88.41, 0.00, 0.00, 0.00, -0.080, -1.040, -0.096, 19:16:43.636, 1589044603636
12, -73.64, 0.00, 0.00, 0.00, -0.080, -1.040, -0.096, 19:16:43.636, 1589044603636
13, -475.29, 0.00, 0.00, 0.00, -0.080, -1.040, -0.096, 19:16:43.651, 1589044603651
14, -442.01, 0.00, 0.00, 0.00, -0.080, -1.040, -0.096, 19:16:43.651, 1589044603651
15, -73.11, 0.00, 0.00, 0.00, -0.080, -1.040, -0.096, 19:16:43.667, 1589044603667
16, -66.92, 0.00, 0.00, 0.00, -0.080, -1.040, -0.096, 19:16:43.667, 1589044603667
17, -465.41, 0.00, 0.00, 0.00, -0.080, -1.040, -0.096, 19:16:43.667, 1589044603667
18, -438.77, 0.00, 0.00, 0.00, -0.080, -1.040, -0.096, 19:16:43.667, 1589044603667
19, -89.76, 0.00, 0.00, 0.00, -0.080, -1.040, -0.096, 19:16:43.681, 1589044603681
20, -72.15, 0.00, 0.00, 0.00, -0.080, -1.040, -0.096, 19:16:43.681, 1589044603681
21, -472.06, 0.00, 0.00, 0.00, -0.080, -1.040, -0.096, 19:16:43.696, 1589044603696
22, -432.24, 0.00, 0.00, 0.00, -0.080, -1.040, -0.096, 19:16:43.696, 1589044603696
23, -90.13, 0.00, 0.00, 0.00, -0.080, -1.040, -0.096, 19:16:43.697, 1589044603697
24, -78.36, 0.00, 0.00, 0.00, -0.080, -1.040, -0.096, 19:16:43.697, 1589044603697
25, -458.72, 0.00, 0.00, 0.00, -0.080, -1.040, -0.096, 19:16:43.711, 1589044603711
26, -432.99, 0.00, 0.00, 0.00, -0.080, -1.040, -0.080, 19:16:43.711, 1589044603711
27, -83.15, 0.00, 0.00, 0.00, -0.080, -1.040, -0.080, 19:16:43.726, 1589044603726
28, -70.70, 0.00, 0.00, 0.00, -0.080, -1.040, -0.080, 19:16:43.726, 1589044603726
29, -470.93, 0.00, 0.00, 0.00, -0.080, -1.040, -0.080, 19:16:43.727, 1589044603727
30, -443.10, 0.00, 0.00, 0.00, -0.080, -1.040, -0.080, 19:16:43.727, 1589044603727
31, -85.79, 0.00, 0.00, 0.00, -0.080, -1.040, -0.080, 19:16:43.741, 1589044603741
32, -59.33, 0.00, 0.00, 0.00, -0.080, -1.040, -0.080, 19:16:43.741, 1589044603741
33, -463.17, 0.00, 0.00, 0.00, -0.080, -1.040, -0.080, 19:16:43.756, 1589044603756
34, -429.81, 0.00, 0.00, 0.00, -0.080, -1.040, -0.080, 19:16:43.756, 1589044603756
35, -66.89, 0.00, 0.00, 0.00, -0.080, -1.040, -0.080, 19:16:43.757, 1589044603757
36, -72.50, 0.00, 0.00, 0.00, -0.080, -1.040, -0.080, 19:16:43.757, 1589044603757
37, -469.11, 0.00, 0.00, 0.00, -0.080, -1.040, -0.080, 19:16:43.771, 1589044603771
38, -433.60, 0.00, 0.00, 0.00, -0.080, -1.040, -0.080, 19:16:43.771, 1589044603771
39, -80.71, 0.00, 0.00, 0.00, -0.080, -1.040, -0.080, 19:16:43.786, 1589044603786
40, -68.81, 0.00, 0.00, 0.00, -0.080, -1.040, -0.080, 19:16:43.786, 1589044603786
41, -471.70, 0.00, 0.00, 0.00, -0.080, -1.040, -0.080, 19:16:43.787, 1589044603787
42, -434.61, 0.00, 0.00, 0.00, -0.080, -1.040, -0.080, 19:16:43.787, 1589044603787
43, -73.27, 0.00, 0.00, 0.00, -0.080, -1.040, -0.080, 19:16:43.801, 1589044603801
44, -68.31, 0.00, 0.00, 0.00, -0.080, -1.040, -0.080, 19:16:43.801, 1589044603801
45, -465.04, 0.00, 0.00, 0.00, -0.080, -1.040, -0.080, 19:16:43.816, 1589044603816
46, -426.22, 0.00, 0.00, 0.00, -0.080, -1.040, -0.080, 19:16:43.816, 1589044603816
47, -79.66, 0.00, 0.00, 0.00, -0.080, -1.040, -0.080, 19:16:43.817, 1589044603817
48, -65.65, 0.00, 0.00, 0.00, -0.080, -1.040, -0.080, 19:16:43.817, 1589044603817
49, -458.91, 0.00, 0.00, 0.00, -0.080, -1.040, -0.080, 19:16:43.847, 1589044603847
50, -406.24, 0.00, 0.00, 0.00, -0.080, -1.040, -0.080, 19:16:43.847, 1589044603847
51, -74.77, 0.00, 0.00, 0.00, -0.080, -1.040, -0.080, 19:16:43.848, 1589044603848
52, -59.65, 0.00, 0.00, 0.00, -0.080, -1.040, -0.080, 19:16:43.848, 1589044603848
53, -444.81, 0.00, 0.00, 0.00, -0.080, -1.040, -0.080, 19:16:43.848, 1589044603848
54, -423.41, 0.00, 0.00, 0.00, -0.080, -1.040, -0.080, 19:16:43.848, 1589044603848
55, -69.02, 0.00, 0.00, 0.00, -0.080, -1.040, -0.080, 19:16:43.861, 1589044603861
56, -45.69, 0.00, 0.00, 0.00, -0.080, -1.040, -0.080, 19:16:43.861, 1589044603861
57, -444.55, 0.00, 0.00, 0.00, -0.080, -1.040, -0.080, 19:16:43.876, 1589044603876
58, -407.51, 0.00, 0.00, 0.00, -0.080, -1.040, -0.080, 19:16:43.877, 1589044603877
59, -61.58, 0.00, 0.00, 0.00, -0.080, -1.040, -0.080, 19:16:43.877, 1589044603877
60, -32.83, 0.00, 0.00, 0.00, -0.080, -1.040, -0.080, 19:16:43.877, 1589044603877
61, -441.64, 0.00, 0.00, 0.00, -0.080, -1.040, -0.080, 19:16:43.891, 1589044603891
62, -410.50, 0.00, 0.00, 0.00, -0.080, -1.040, -0.080, 19:16:43.891, 1589044603891
63, -41.62, 0.00, 0.00, 0.00, -0.080, -1.040, -0.080, 19:16:43.907, 1589044603907
64, -35.92, 0.00, 0.00, 0.00, -0.080, -1.040, -0.080, 19:16:43.907, 1589044603907
65, -432.61, 0.00, 0.00, 0.00, -0.080, -1.040, -0.080, 19:16:43.907, 1589044603907
66, -397.99, 0.00, 0.00, 0.00, -0.080, -1.040, -0.080, 19:16:43.907, 1589044603907
67, -45.61, 0.00, 0.00, 0.00, -0.080, -1.040, -0.080, 19:16:43.921, 1589044603921
68, -40.05, 0.00, 0.00, 0.00, -0.080, -1.040, -0.080, 19:16:43.921, 1589044603921
69, -432.29, 0.00, 0.00, 0.00, -0.080, -1.040, -0.080, 19:16:43.936, 1589044603936
70, -392.23, 0.00, 0.00, 0.00, -0.080, -1.040, -0.080, 19:16:43.936, 1589044603936
71, -52.84, 0.00, 0.00, 0.00, -0.080, -1.040, -0.080, 19:16:43.937, 1589044603937
72, -37.02, 0.00, 0.00, 0.00, -0.080, -1.040, -0.080, 19:16:43.937, 1589044603937
73, -411.23, 0.00, 0.00, 0.00, -0.080, -1.040, -0.080, 19:16:43.951, 1589044603951
74, -396.33, 0.00, 0.00, 0.00, -0.080, -1.040, -0.080, 19:16:43.951, 1589044603951
75, -47.86, 0.00, 0.00, 0.00, -0.080, -1.040, -0.080, 19:16:43.966, 1589044603966
76, -22.80, 0.00, 0.00, 0.00, -0.080, -1.040, -0.080, 19:16:43.966, 1589044603966
77, -433.74, 0.00, 0.00, 0.00, -0.080, -1.040, -0.080, 19:16:43.967, 1589044603967
78, -406.33, 0.00, 0.00, 0.00, -0.080, -1.040, -0.080, 19:16:43.967, 1589044603967
79, -53.07, 0.00, 0.00, 0.00, -0.080, -1.040, -0.080, 19:16:43.981, 1589044603981
80, -33.71, 0.00, 0.00, 0.00, -0.080, -1.040, -0.080, 19:16:43.981, 1589044603981
81, -430.66, 0.00, 0.00, 0.00, -0.080, -1.040, -0.080, 19:16:43.996, 1589044603996
82, -400.29, 0.00, 0.00, 0.00, -0.080, -1.040, -0.080, 19:16:43.996, 1589044603996
83, -39.51, 0.00, 0.00, 0.00, -0.080, -1.040, -0.080, 19:16:43.997, 1589044603997
84, -38.12, 0.00, 0.00, 0.00, -0.080, -1.040, -0.080, 19:16:43.997, 1589044603997
85, -437.41, 0.00, 0.00, 0.00, -0.080, -1.040, -0.080, 19:16:44.011, 1589044604011
86, -408.57, 0.00, 0.00, 0.00, -0.080, -1.040, -0.080, 19:16:44.011, 1589044604011
87, -55.43, 0.00, 0.00, 0.00, -0.080, -1.040, -0.080, 19:16:44.027, 1589044604027
88, -39.89, 0.00, 0.00, 0.00, -0.080, -1.040, -0.080, 19:16:44.027, 1589044604027
89, -439.10, 0.00, 0.00, 0.00, -0.080, -1.040, -0.080, 19:16:44.027, 1589044604027
90, -396.59, 0.00, 0.00, 0.00, -0.080, -1.040, -0.080, 19:16:44.027, 1589044604027
91, -63.60, 0.00, 0.00, 0.00, -0.080, -1.040, -0.080, 19:16:44.041, 1589044604041
92, -48.72, 0.00, 0.00, 0.00, -0.080, -1.040, -0.080, 19:16:44.041, 1589044604041
93, -430.53, 0.00, 0.00, 0.00, -0.080, -1.040, -0.080, 19:16:44.057, 1589044604057
94, -412.58, 0.00, 0.00, 0.00, -0.080, -1.040, -0.080, 19:16:44.057, 1589044604057
95, -59.93, 0.00, 0.00, 0.00, -0.080, -1.040, -0.080, 19:16:44.057, 1589044604057
96, -36.72, 0.00, 0.00, 0.00, -0.080, -1.040, -0.080, 19:16:44.057, 1589044604057
97, -443.24, 0.00, 0.00, 0.00, -0.080, -1.040, -0.080, 19:16:44.071, 1589044604071
98, -401.86, 0.00, 0.00, 0.00, -0.080, -1.040, -0.080, 19:16:44.071, 1589044604071
99, -60.03, 0.00, 0.00, 0.00, -0.080, -1.040, -0.080, 19:16:44.087, 1589044604087
100, -50.40, 0.00, 0.00, 0.00, -0.080, -1.040, -0.080, 19:16:44.087, 1589044604087
101, -436.08, 0.00, 0.00, 0.00, -0.080, -1.040, -0.080, 19:16:44.087, 1589044604087
102, -411.36, 0.00, 0.00, 0.00, -0.080, -1.040, -0.080, 19:16:44.087, 1589044604087
103, -72.41, 0.00, 0.00, 0.00, -0.080, -1.040, -0.080, 19:16:44.101, 1589044604101
104, -57.52, 0.00, 0.00, 0.00, -0.080, -1.040, -0.080, 19:16:44.101, 1589044604101
105, -439.55, 0.00, 0.00, 0.00, -0.080, -1.040, -0.080, 19:16:44.116, 1589044604116
106, -416.82, 0.00, 0.00, 0.00, -0.080, -1.040, -0.064, 19:16:44.116, 1589044604116
107, -60.67, 0.00, 0.00, 0.00, -0.080, -1.040, -0.064, 19:16:44.117, 1589044604117
108, -31.58, 0.00, 0.00, 0.00, -0.080, -1.040, -0.064, 19:16:44.117, 1589044604117
109, -438.55, 0.00, 0.00, 0.00, -0.080, -1.040, -0.064, 19:16:44.131, 1589044604131
110, -420.86, 0.00, 0.00, 0.00, -0.080, -1.040, -0.064, 19:16:44.131, 1589044604131
111, -60.55, 0.00, 0.00, 0.00, -0.080, -1.040, -0.064, 19:16:44.147, 1589044604147
112, -39.33, 0.00, 0.00, 0.00, -0.080, -1.040, -0.064, 19:16:44.147, 1589044604147
113, -444.91, 0.00, 0.00, 0.00, -0.080, -1.040, -0.064, 19:16:44.148, 1589044604148
114, -408.58, 0.00, 0.00, 0.00, -0.080, -1.040, -0.064, 19:16:44.148, 1589044604148
115, -59.79, 0.00, 0.00, 0.00, -0.080, -1.040, -0.064, 19:16:44.161, 1589044604161
116, -45.43, 0.00, 0.00, 0.00, -0.080, -1.040, -0.064, 19:16:44.161, 1589044604161
117, -437.68, 0.00, 0.00, 0.00, -0.080, -1.040, -0.064, 19:16:44.176, 1589044604176
118, -408.51, 0.00, 0.00, 0.00, -0.080, -1.040, -0.064, 19:16:44.176, 1589044604176
119, -46.24, 0.00, 0.00, 0.00, -0.080, -1.040, -0.064, 19:16:44.177, 1589044604177
120, -47.78, 0.00, 0.00, 0.00, -0.080, -1.040, -0.064, 19:16:44.177, 1589044604177
121, -444.30, 0.00, 0.00, 0.00, -0.080, -1.040, -0.064, 19:16:44.191, 1589044604191
122, -407.07, 0.00, 0.00, 0.00, -0.080, -1.040, -0.064, 19:16:44.191, 1589044604191
123, -61.84, 0.00, 0.00, 0.00, -0.080, -1.040, -0.064, 19:16:44.223, 1589044604223
124, -48.24, 0.00, 0.00, 0.00, -0.080, -1.040, -0.064, 19:16:44.223, 1589044604223
125, -427.91, 0.00, 0.00, 0.00, -0.080, -1.040, -0.064, 19:16:44.224, 1589044604224
126, -412.67, 0.00, 0.00, 0.00, -0.080, -1.040, -0.064, 19:16:44.224, 1589044604224
127, -59.16, 0.00, 0.00, 0.00, -0.080, -1.040, -0.064, 19:16:44.224, 1589044604224
128, -47.20, 0.00, 0.00, 0.00, -0.080, -1.040, -0.064, 19:16:44.224, 1589044604224
129, -439.83, 0.00, 0.00, 0.00, -0.080, -1.040, -0.064, 19:16:44.225, 1589044604225
130, -402.79, 0.00, 0.00, 0.00, -0.080, -1.040, -0.064, 19:16:44.225, 1589044604225
131, -69.52, 0.00, 0.00, 0.00, -0.080, -1.040, -0.064, 19:16:44.236, 1589044604236
132, -48.59, 0.00, 0.00, 0.00, -0.080, -1.040, -0.064, 19:16:44.236, 1589044604236
133, -438.70, 0.00, 0.00, 0.00, -0.080, -1.040, -0.064, 19:16:44.251, 1589044604251
134, -422.06, 0.00, 0.00, 0.00, -0.080, -1.040, -0.064, 19:16:44.251, 1589044604251
135, -65.58, 0.00, 0.00, 0.00, -0.080, -1.040, -0.064, 19:16:44.267, 1589044604267
136, -47.27, 0.00, 0.00, 0.00, -0.080, -1.040, -0.064, 19:16:44.267, 1589044604267
137, -437.07, 0.00, 0.00, 0.00, -0.080, -1.040, -0.064, 19:16:44.267, 1589044604267
138, -414.63, 0.00, 0.00, 0.00, -0.080, -1.040, -0.064, 19:16:44.267, 1589044604267
139, -61.98, 0.00, 0.00, 0.00, -0.080, -1.040, -0.064, 19:16:44.281, 1589044604281
140, -46.31, 0.00, 0.00, 0.00, -0.080, -1.040, -0.064, 19:16:44.281, 1589044604281
141, -451.67, 0.00, 0.00, 0.00, -0.080, -1.040, -0.064, 19:16:44.296, 1589044604296
142, -424.88, 0.00, 0.00, 0.00, -0.080, -1.040, -0.064, 19:16:44.297, 1589044604297
143, -56.31, 0.00, 0.00, 0.00, -0.080, -1.040, -0.064, 19:16:44.297, 1589044604297
144, -51.48, 0.00, 0.00, 0.00, -0.080, -1.040, -0.064, 19:16:44.297, 1589044604297
145, -447.41, 0.00, 0.00, 0.00, -0.080, -1.040, -0.064, 19:16:44.311, 1589044604311
146, -416.78, 0.00, 0.00, 0.00, -0.080, -1.040, -0.064, 19:16:44.311, 1589044604311
147, -50.98, 0.00, 0.00, 0.00, -0.080, -1.040, -0.064, 19:16:44.326, 1589044604326
148, -50.35, 0.00, 0.00, 0.00, -0.080, -1.040, -0.064, 19:16:44.326, 1589044604326
149, -447.60, 0.00, 0.00, 0.00, -0.080, -1.040, -0.064, 19:16:44.327, 1589044604327
150, -419.47, 0.00, 0.00, 0.00, -0.080, -1.040, -0.064, 19:16:44.327, 1589044604327
151, -69.96, 0.00, 0.00, 0.00, -0.080, -1.040, -0.064, 19:16:44.341, 1589044604341
152, -52.01, 0.00, 0.00, 0.00, -0.080, -1.040, -0.064, 19:16:44.341, 1589044604341
153, -444.78, 0.00, 0.00, 0.00, -0.080, -1.040, -0.064, 19:16:44.356, 1589044604356
154, -427.38, 0.00, 0.00, 0.00, -0.080, -1.040, -0.064, 19:16:44.356, 1589044604356
155, -75.56, 0.00, 0.00, 0.00, -0.080, -1.040, -0.064, 19:16:44.357, 1589044604357
156, -56.19, 0.00, 0.00, 0.00, -0.080, -1.040, -0.064, 19:16:44.357, 1589044604357
157, -446.13, 0.00, 0.00, 0.00, -0.080, -1.040, -0.064, 19:16:44.371, 1589044604371
158, -428.98, 0.00, 0.00, 0.00, -0.080, -1.040, -0.064, 19:16:44.371, 1589044604371
159, -70.93, 0.00, 0.00, 0.00, -0.080, -1.040, -0.064, 19:16:44.387, 1589044604387
160, -38.97, 0.00, 0.00, 0.00, -0.080, -1.040, -0.064, 19:16:44.387, 1589044604387
161, -454.67, 0.00, 0.00, 0.00, -0.080, -1.040, -0.064, 19:16:44.387, 1589044604387
162, -420.43, 0.00, 0.00, 0.00, -0.080, -1.040, -0.064, 19:16:44.387, 1589044604387
163, -67.84, 0.00, 0.00, 0.00, -0.080, -1.040, -0.064, 19:16:44.401, 1589044604401
164, -65.49, 0.00, 0.00, 0.00, -0.080, -1.040, -0.064, 19:16:44.401, 1589044604401
165, -458.32, 0.00, 0.00, 0.00, -0.080, -1.040, -0.064, 19:16:44.417, 1589044604417
166, -421.49, 0.00, 0.00, 0.00, -0.080, -1.040, -0.064, 19:16:44.417, 1589044604417
167, -68.98, 0.00, 0.00, 0.00, -0.080, -1.040, -0.064, 19:16:44.417, 1589044604417
168, -55.78, 0.00, 0.00, 0.00, -0.080, -1.040, -0.064, 19:16:44.417, 1589044604417
169, -437.73, 0.00, 0.00, 0.00, -0.080, -1.040, -0.064, 19:16:44.447, 1589044604447
170, -419.96, 0.00, 0.00, 0.00, -0.080, -1.040, -0.064, 19:16:44.447, 1589044604447
171, -63.42, 0.00, 0.00, 0.00, -0.080, -1.040, -0.064, 19:16:44.448, 1589044604448
172, -39.13, 0.00, 0.00, 0.00, -0.080, -1.040, -0.064, 19:16:44.448, 1589044604448
173, -447.95, 0.00, 0.00, 0.00, -0.080, -1.040, -0.064, 19:16:44.448, 1589044604448
174, -418.78, 0.00, 0.00, 0.00, -0.080, -1.040, -0.064, 19:16:44.448, 1589044604448
175, -62.81, 0.00, 0.00, 0.00, -0.080, -1.040, -0.064, 19:16:44.461, 1589044604461
176, -37.23, 0.00, 0.00, 0.00, -0.080, -1.040, -0.064, 19:16:44.461, 1589044604461
177, -448.30, 0.00, 0.00, 0.00, -0.080, -1.040, -0.064, 19:16:44.476, 1589044604476
178, -410.72, 0.00, 0.00, 0.00, -0.080, -1.040, -0.064, 19:16:44.476, 1589044604476
179, -55.41, 0.00, 0.00, 0.00, -0.080, -1.040, -0.064, 19:16:44.477, 1589044604477
180, -47.96, 0.00, 0.00, 0.00, -0.080, -1.040, -0.064, 19:16:44.477, 1589044604477
181, -442.10, 0.00, 0.00, 0.00, -0.080, -1.040, -0.064, 19:16:44.492, 1589044604492
182, -416.89, 0.00, 0.00, 0.00, -0.080, -1.040, -0.064, 19:16:44.492, 1589044604492
183, -64.24, 0.00, 0.00, 0.00, -0.080, -1.040, -0.064, 19:16:44.506, 1589044604506
184, -39.51, 0.00, 0.00, 0.00, -0.080, -1.040, -0.064, 19:16:44.506, 1589044604506
185, -447.05, 0.00, 0.00, 0.00, -0.080, -1.040, -0.064, 19:16:44.507, 1589044604507
186, -413.08, 0.00, 0.00, 0.00, -0.080, -1.040, -0.064, 19:16:44.507, 1589044604507
187, -51.83, 0.00, 0.00, 0.00, -0.080, -1.040, -0.064, 19:16:44.521, 1589044604521
188, -36.85, 0.00, 0.00, 0.00, -0.080, -1.040, -0.064, 19:16:44.521, 1589044604521
189, -427.84, 0.00, 0.00, 0.00, -0.080, -1.040, -0.064, 19:16:44.536, 1589044604536
190, -411.78, 0.00, 0.00, 0.00, -0.080, -1.040, -0.064, 19:16:44.536, 1589044604536
191, -61.23, 0.00, 0.00, 0.00, -0.080, -1.040, -0.064, 19:16:44.537, 1589044604537
192, -48.48, 0.00, 0.00, 0.00, -0.080, -1.040, -0.064, 19:16:44.537, 1589044604537
193, -445.64, 0.00, 0.00, 0.00, -0.080, -1.040, -0.064, 19:16:44.551, 1589044604551
194, -396.55, 0.00, 0.00, 0.00, -0.080, -1.040, -0.064, 19:16:44.551, 1589044604551
195, -61.73, 0.00, 0.00, 0.00, -0.080, -1.040, -0.064, 19:16:44.566, 1589044604566
196, -43.81, 0.00, 0.00, 0.00, -0.080, -1.040, -0.064, 19:16:44.566, 1589044604566
197, -430.70, 0.00, 0.00, 0.00, -0.080, -1.040, -0.064, 19:16:44.567, 1589044604567
198, -412.28, 0.00, 0.00, 0.00, -0.080, -1.040, -0.064, 19:16:44.567, 1589044604567
199, -60.67, 0.00, 0.00, 0.00, -0.080, -1.040, -0.064, 19:16:44.581, 1589044604581
200, -34.66, 0.00, 0.00, 0.00, -0.080, -1.040, -0.064, 19:16:44.581, 1589044604581
0, -442.21, 0.00, 0.00, 0.00, -0.080, -1.040, -0.064, 19:16:44.582, 1589044604582
1, -408.98, 0.00, 0.00, 0.00, -0.080, -1.040, -0.064, 19:16:44.596, 1589044604596
2, -56.00, 0.00, 0.00, 0.00, -0.080, -1.040, -0.064, 19:16:44.596, 1589044604596
3, -22.77, 0.00, 0.00, 0.00, -0.080, -1.040, -0.064, 19:16:44.611, 1589044604611
4, -436.66, 0.00, 0.00, 0.00, -0.080, -1.040, -0.064, 19:16:44.611, 1589044604611
5, -407.99, 0.00, 0.00, 0.00, -0.080, -1.040, -0.064, 19:16:44.612, 1589044604612
6, -38.15, 0.00, 0.00, 0.00, -0.080, -1.040, -0.064, 19:16:44.612, 1589044604612
7, -37.73, 0.00, 0.00, 0.00, -0.080, -1.040, -0.064, 19:16:44.626, 1589044604626
8, -432.53, 0.00, 0.00, 0.00, -0.080, -1.040, -0.064, 19:16:44.626, 1589044604626
9, -398.61, 0.00, 0.00, 0.00, -0.080, -1.040, -0.064, 19:16:44.641, 1589044604641
10, -34.01, 0.00, 0.00, 0.00, -0.080, -1.040, -0.064, 19:16:44.641, 1589044604641
11, -30.17, 0.00, 0.00, 0.00, -0.080, -1.040, -0.064, 19:16:44.642, 1589044604642
12, -429.46, 0.00, 0.00, 0.00, -0.080, -1.040, -0.064, 19:16:44.642, 1589044604642
13, -394.97, 0.00, 0.00, 0.00, -0.080, -1.040, -0.064, 19:16:44.656, 1589044604656
14, -42.74, 0.00, 0.00, 0.00, -0.080, -1.040, -0.064, 19:16:44.656, 1589044604656
15, -18.01, 0.00, 0.00, 0.00, -0.080, -1.040, -0.064, 19:16:44.672, 1589044604672
16, -426.37, 0.00, 0.00, 0.00, -0.080, -1.040, -0.064, 19:16:44.672, 1589044604672
17, -396.14, 0.00, 0.00, 0.00, -0.080, -1.040, -0.064, 19:16:44.672, 1589044604672
18, -32.36, 0.00, 0.00, 0.00, -0.080, -1.040, -0.064, 19:16:44.672, 1589044604672
19, -26.10, 0.00, 0.00, 0.00, -0.080, -1.040, -0.064, 19:16:44.686, 1589044604686
20, -430.82, 0.00, 0.00, 0.00, -0.080, -1.040, -0.064, 19:16:44.686, 1589044604686
21, -385.12, 0.00, 0.00, 0.00, -0.080, -1.040, -0.064, 19:16:44.701, 1589044604701
22, -42.08, 0.00, 0.00, 0.00, -0.080, -1.040, -0.064, 19:16:44.701, 1589044604701
23, -28.65, 0.00, 0.00, 0.00, -0.080, -1.040, -0.064, 19:16:44.702, 1589044604702
24, -426.65, 0.00, 0.00, 0.00, -0.080, -1.040, -0.064, 19:16:44.702, 1589044604702
25, -386.96, 0.00, 0.00, 0.00, -0.080, -1.040, -0.064, 19:16:44.732, 1589044604732
26, -42.67, 0.00, 0.00, 0.00, -0.080, -1.040, -0.080, 19:16:44.732, 1589044604732
27, -10.02, 0.00, 0.00, 0.00, -0.080, -1.040, -0.080, 19:16:44.732, 1589044604732
28, -430.04, 0.00, 0.00, 0.00, -0.080, -1.040, -0.080, 19:16:44.732, 1589044604732
29, -400.63, 0.00, 0.00, 0.00, -0.080, -1.040, -0.080, 19:16:44.733, 1589044604733
30, -36.89, 0.00, 0.00, 0.00, -0.080, -1.040, -0.080, 19:16:44.733, 1589044604733
31, -24.31, 0.00, 0.00, 0.00, -0.080, -1.040, -0.080, 19:16:44.746, 1589044604746
32, -427.53, 0.00, 0.00, 0.00, -0.080, -1.040, -0.080, 19:16:44.746, 1589044604746
33, -404.43, 0.00, 0.00, 0.00, -0.080, -1.040, -0.080, 19:16:44.761, 1589044604761
34, -37.63, 0.00, 0.00, 0.00, -0.080, -1.040, -0.080, 19:16:44.761, 1589044604761
35, -31.32, 0.00, 0.00, 0.00, -0.080, -1.040, -0.080, 19:16:44.776, 1589044604776
36, -429.89, 0.00, 0.00, 0.00, -0.080, -1.040, -0.080, 19:16:44.776, 1589044604776
37, -396.00, 0.00, 0.00, 0.00, -0.080, -1.040, -0.080, 19:16:44.777, 1589044604777
38, -53.46, 0.00, 0.00, 0.00, -0.080, -1.040, -0.080, 19:16:44.777, 1589044604777
39, -35.59, 0.00, 0.00, 0.00, -0.080, -1.040, -0.080, 19:16:44.792, 1589044604792
40, -430.80, 0.00, 0.00, 0.00, -0.080, -1.040, -0.080, 19:16:44.792, 1589044604792
41, -404.11, 0.00, 0.00, 0.00, -0.080, -1.040, -0.080, 19:16:44.792, 1589044604792
42, -51.62, 0.00, 0.00, 0.00, -0.080, -1.040, -0.080, 19:16:44.792, 1589044604792
43, -35.63, 0.00, 0.00, 0.00, -0.080, -1.040, -0.080, 19:16:44.806, 1589044604806
44, -428.14, 0.00, 0.00, 0.00, -0.080, -1.040, -0.080, 19:16:44.806, 1589044604806
45, -413.56, 0.00, 0.00, 0.00, -0.080, -1.040, -0.080, 19:16:44.821, 1589044604821
46, -58.41, 0.00, 0.00, 0.00, -0.080, -1.040, -0.080, 19:16:44.821, 1589044604821
47, -30.84, 0.00, 0.00, 0.00, -0.080, -1.040, -0.080, 19:16:44.822, 1589044604822
48, -442.37, 0.00, 0.00, 0.00, -0.080, -1.040, -0.080, 19:16:44.822, 1589044604822
49, -405.03, 0.00, 0.00, 0.00, -0.080, -1.040, -0.080, 19:16:44.836, 1589044604836
50, -63.46, 0.00, 0.00, 0.00, -0.080, -1.040, -0.080, 19:16:44.836, 1589044604836
51, -39.10, 0.00, 0.00, 0.00, -0.080, -1.040, -0.080, 19:16:44.851, 1589044604851
52, -429.91, 0.00, 0.00, 0.00, -0.080, -1.040, -0.080, 19:16:44.851, 1589044604851
53, -410.86, 0.00, 0.00, 0.00, -0.080, -1.040, -0.080, 19:16:44.852, 1589044604852
54, -58.82, 0.00, 0.00, 0.00, -0.080, -1.040, -0.080, 19:16:44.852, 1589044604852
55, -42.18, 0.00, 0.00, 0.00, -0.080, -1.040, -0.080, 19:16:44.882, 1589044604882
56, -434.36, 0.00, 0.00, 0.00, -0.080, -1.040, -0.080, 19:16:44.882, 1589044604882
57, -425.83, 0.00, 0.00, 0.00, -0.080, -1.040, -0.080, 19:16:44.883, 1589044604883
58, -68.24, 0.00, 0.00, 0.00, -0.080, -1.040, -0.080, 19:16:44.883, 1589044604883
59, -38.76, 0.00, 0.00, 0.00, -0.080, -1.040, -0.080, 19:16:44.884, 1589044604884
60, -447.06, 0.00, 0.00, 0.00, -0.080, -1.040, -0.080, 19:16:44.884, 1589044604884
61, -426.14, 0.00, 0.00, 0.00, -0.080, -1.040, -0.080, 19:16:44.896, 1589044604896
62, -45.05, 0.00, 0.00, 0.00, -0.080, -1.040, -0.080, 19:16:44.896, 1589044604896
63, -44.75, 0.00, 0.00, 0.00, -0.080, -1.040, -0.080, 19:16:44.911, 1589044604911
64, -440.26, 0.00, 0.00, 0.00, -0.080, -1.040, -0.080, 19:16:44.911, 1589044604911
65, -399.44, 0.00, 0.00, 0.00, -0.080, -1.040, -0.080, 19:16:44.912, 1589044604912
66, -54.46, 0.00, 0.00, 0.00, -0.080, -1.040, -0.080, 19:16:44.912, 1589044604912
67, -38.38, 0.00, 0.00, 0.00, -0.080, -1.040, -0.080, 19:16:44.926, 1589044604926
68, -436.84, 0.00, 0.00, 0.00, -0.080, -1.040, -0.080, 19:16:44.926, 1589044604926
69, -403.13, 0.00, 0.00, 0.00, -0.080, -1.040, -0.080, 19:16:44.942, 1589044604942
70, -56.20, 0.00, 0.00, 0.00, -0.080, -1.040, -0.080, 19:16:44.942, 1589044604942
71, -28.52, 0.00, 0.00, 0.00, -0.080, -1.040, -0.080, 19:16:44.942, 1589044604942
72, -430.71, 0.00, 0.00, 0.00, -0.080, -1.040, -0.080, 19:16:44.942, 1589044604942
73, -403.25, 0.00, 0.00, 0.00, -0.080, -1.040, -0.080, 19:16:44.956, 1589044604956
74, -58.12, 0.00, 0.00, 0.00, -0.080, -1.040, -0.080, 19:16:44.956, 1589044604956
75, -28.43, 0.00, 0.00, 0.00, -0.080, -1.040, -0.080, 19:16:44.971, 1589044604971
76, -437.49, 0.00, 0.00, 0.00, -0.080, -1.040, -0.080, 19:16:44.971, 1589044604971
77, -415.03, 0.00, 0.00, 0.00, -0.080, -1.040, -0.080, 19:16:44.972, 1589044604972
78, -42.84, 0.00, 0.00, 0.00, -0.080, -1.040, -0.080, 19:16:44.972, 1589044604972
79, -32.89, 0.00, 0.00, 0.00, -0.080, -1.040, -0.080, 19:16:44.986, 1589044604986
80, -436.28, 0.00, 0.00, 0.00, -0.080, -1.040, -0.080, 19:16:44.986, 1589044604986
81, -401.81, 0.00, 0.00, 0.00, -0.080, -1.040, -0.080, 19:16:45.002, 1589044605002
82, -49.33, 0.00, 0.00, 0.00, -0.080, -1.040, -0.080, 19:16:45.002, 1589044605002
83, -37.63, 0.00, 0.00, 0.00, -0.080, -1.040, -0.080, 19:16:45.003, 1589044605003
84, -436.15, 0.00, 0.00, 0.00, -0.080, -1.040, -0.080, 19:16:45.003, 1589044605003
85, -397.13, 0.00, 0.00, 0.00, -0.080, -1.040, -0.080, 19:16:45.016, 1589044605016
86, -51.36, 0.00, 0.00, 0.00, -0.080, -1.040, -0.080, 19:16:45.016, 1589044605016
87, -27.65, 0.00, 0.00, 0.00, -0.080, -1.040, -0.080, 19:16:45.031, 1589044605031
88, -417.75, 0.00, 0.00, 0.00, -0.080, -1.040, -0.080, 19:16:45.031, 1589044605031
89, -404.55, 0.00, 0.00, 0.00, -0.080, -1.040, -0.080, 19:16:45.032, 1589044605032
90, -42.52, 0.00, 0.00, 0.00, -0.080, -1.040, -0.080, 19:16:45.032, 1589044605032
91, -28.68, 0.00, 0.00, 0.00, -0.080, -1.040, -0.080, 19:16:45.046, 1589044605046
92, -428.92, 0.00, 0.00, 0.00, -0.080, -1.040, -0.080, 19:16:45.046, 1589044605046
93, -393.53, 0.00, 0.00, 0.00, -0.080, -1.040, -0.080, 19:16:45.061, 1589044605061
94, -55.84, 0.00, 0.00, 0.00, -0.080, -1.040, -0.080, 19:16:45.061, 1589044605061
95, -32.41, 0.00, 0.00, 0.00, -0.080, -1.040, -0.080, 19:16:45.062, 1589044605062
96, -417.28, 0.00, 0.00, 0.00, -0.080, -1.040, -0.080, 19:16:45.062, 1589044605062
97, -401.78, 0.00, 0.00, 0.00, -0.080, -1.040, -0.080, 19:16:45.076, 1589044605076
98, -51.04, 0.00, 0.00, 0.00, -0.080, -1.040, -0.080, 19:16:45.076, 1589044605076
99, -24.27, 0.00, 0.00, 0.00, -0.080, -1.040, -0.080, 19:16:45.091, 1589044605091
100, -430.17, 0.00, 0.00, 0.00, -0.080, -1.040, -0.080, 19:16:45.091, 1589044605091
101, -406.81, 0.00, 0.00, 0.00, -0.080, -1.040, -0.080, 19:16:45.092, 1589044605092
102, -44.98, 0.00, 0.00, 0.00, -0.080, -1.040, -0.080, 19:16:45.092, 1589044605092
103, -17.98, 0.00, 0.00, 0.00, -0.080, -1.040, -0.080, 19:16:45.106, 1589044605106
104, -436.98, 0.00, 0.00, 0.00, -0.080, -1.040, -0.080, 19:16:45.106, 1589044605106
105, -412.23, 0.00, 0.00, 0.00, -0.080, -1.040, -0.080, 19:16:45.122, 1589044605122
106, -34.26, 0.00, 0.00, 0.00, -0.080, -1.040, -0.064, 19:16:45.122, 1589044605122
107, -32.13, 0.00, 0.00, 0.00, -0.080, -1.040, -0.064, 19:16:45.123, 1589044605123
108, -442.86, 0.00, 0.00, 0.00, -0.080, -1.040, -0.064, 19:16:45.123, 1589044605123
109, -404.42, 0.00, 0.00, 0.00, -0.080, -1.040, -0.064, 19:16:45.135, 1589044605135
110, -59.79, 0.00, 0.00, 0.00, -0.080, -1.040, -0.064, 19:16:45.135, 1589044605135
111, -34.38, 0.00, 0.00, 0.00, -0.080, -1.040, -0.064, 19:16:45.151, 1589044605151
112, -437.59, 0.00, 0.00, 0.00, -0.080, -1.040, -0.064, 19:16:45.151, 1589044605151
113, -392.76, 0.00, 0.00, 0.00, -0.080, -1.040, -0.064, 19:16:45.152, 1589044605152
114, -54.14, 0.00, 0.00, 0.00, -0.080, -1.040, -0.064, 19:16:45.152, 1589044605152
115, -33.20, 0.00, 0.00, 0.00, -0.080, -1.040, -0.064, 19:16:45.166, 1589044605166
116, -420.27, 0.00, 0.00, 0.00, -0.080, -1.040, -0.064, 19:16:45.166, 1589044605166
117, -406.76, 0.00, 0.00, 0.00, -0.080, -1.040, -0.064, 19:16:45.181, 1589044605181
118, -48.95, 0.00, 0.00, 0.00, -0.080, -1.040, -0.064, 19:16:45.181, 1589044605181
119, -36.91, 0.00, 0.00, 0.00, -0.080, -1.040, -0.064, 19:16:45.182, 1589044605182
120, -444.13, 0.00, 0.00, 0.00, -0.080, -1.040, -0.064, 19:16:45.182, 1589044605182
121, -388.59, 0.00, 0.00, 0.00, -0.080, -1.040, -0.064, 19:16:45.196, 1589044605196
122, -48.88, 0.00, 0.00, 0.00, -0.080, -1.040, -0.064, 19:16:45.196, 1589044605196
123, -23.15, 0.00, 0.00, 0.00, -0.080, -1.040, -0.064, 19:16:45.211, 1589044605211
124, -409.37, 0.00, 0.00, 0.00, -0.080, -1.040, -0.064, 19:16:45.211, 1589044605211
125, -405.00, 0.00, 0.00, 0.00, -0.080, -1.040, -0.064, 19:16:45.212, 1589044605212
126, -43.21, 0.00, 0.00, 0.00, -0.080, -1.040, -0.064, 19:16:45.212, 1589044605212
127, -10.41, 0.00, 0.00, 0.00, -0.080, -1.040, -0.064, 19:16:45.226, 1589044605226
128, -420.74, 0.00, 0.00, 0.00, -0.080, -1.040, -0.064, 19:16:45.226, 1589044605226
129, -394.16, 0.00, 0.00, 0.00, -0.080, -1.040, -0.064, 19:16:45.241, 1589044605241
130, -39.55, 0.00, 0.00, 0.00, -0.080, -1.040, -0.064, 19:16:45.241, 1589044605241
131, -11.60, 0.00, 0.00, 0.00, -0.080, -1.040, -0.064, 19:16:45.242, 1589044605242
132, -419.32, 0.00, 0.00, 0.00, -0.080, -1.040, -0.064, 19:16:45.242, 1589044605242
133, -395.08, 0.00, 0.00, 0.00, -0.080, -1.040, -0.064, 19:16:45.256, 1589044605256
134, -19.45, 0.00, 0.00, 0.00, -0.080, -1.040, -0.064, 19:16:45.256, 1589044605256
135, -7.71, 0.00, 0.00, 0.00, -0.080, -1.040, -0.064, 19:16:45.288, 1589044605288
136, -406.21, 0.00, 0.00, 0.00, -0.080, -1.040, -0.064, 19:16:45.288, 1589044605288
137, -372.05, 0.00, 0.00, 0.00, -0.080, -1.040, -0.064, 19:16:45.289, 1589044605289
138, -22.56, 0.00, 0.00, 0.00, -0.080, -1.040, -0.064, 19:16:45.289, 1589044605289
139, -5.98, 0.00, 0.00, 0.00, -0.080, -1.040, -0.064, 19:16:45.289, 1589044605289
140, -411.10, 0.00, 0.00, 0.00, -0.080, -1.040, -0.064, 19:16:45.289, 1589044605289
141, -367.33, 0.00, 0.00, 0.00, -0.080, -1.040, -0.064, 19:16:45.290, 1589044605290
142, -19.90, 0.00, 0.00, 0.00, -0.080, -1.040, -0.064, 19:16:45.290, 1589044605290
143, -6.94, 0.00, 0.00, 0.00, -0.080, -1.040, -0.064, 19:16:45.301, 1589044605301
144, -397.31, 0.00, 0.00, 0.00, -0.080, -1.040, -0.064, 19:16:45.301, 1589044605301
145, -381.17, 0.00, 0.00, 0.00, -0.080, -1.040, -0.064, 19:16:45.316, 1589044605316
146, -23.91, 0.00, 0.00, 0.00, -0.064, -1.040, -0.064, 19:16:45.316, 1589044605316
147, -5.48, 0.00, 0.00, 0.00, -0.064, -1.040, -0.064, 19:16:45.333, 1589044605333
148, -418.03, 0.00, 0.00, 0.00, -0.064, -1.040, -0.064, 19:16:45.333, 1589044605333
149, -378.02, 0.00, 0.00, 0.00, -0.064, -1.040, -0.064, 19:16:45.333, 1589044605333
150, -28.83, 0.00, 0.00, 0.00, -0.064, -1.040, -0.064, 19:16:45.333, 1589044605333
151, -3.50, 0.00, 0.00, 0.00, -0.064, -1.040, -0.064, 19:16:45.346, 1589044605346
152, -414.21, 0.00, 0.00, 0.00, -0.064, -1.040, -0.064, 19:16:45.346, 1589044605346
153, -381.33, 0.00, 0.00, 0.00, -0.064, -1.040, -0.064, 19:16:45.362, 1589044605362
154, -23.92, 0.00, 0.00, 0.00, -0.064, -1.040, -0.064, 19:16:45.362, 1589044605362
155, -16.86, 0.00, 0.00, 0.00, -0.064, -1.040, -0.064, 19:16:45.363, 1589044605363
156, -417.82, 0.00, 0.00, 0.00, -0.064, -1.040, -0.064, 19:16:45.363, 1589044605363
157, -391.07, 0.00, 0.00, 0.00, -0.064, -1.040, -0.064, 19:16:45.377, 1589044605377
158, -32.00, 0.00, 0.00, 0.00, -0.064, -1.040, -0.064, 19:16:45.377, 1589044605377
159, -8.81, 0.00, 0.00, 0.00, -0.064, -1.040, -0.064, 19:16:45.394, 1589044605394
160, -418.21, 0.00, 0.00, 0.00, -0.064, -1.040, -0.064, 19:16:45.394, 1589044605394
161, -371.20, 0.00, 0.00, 0.00, -0.064, -1.040, -0.064, 19:16:45.394, 1589044605394
162, -25.83, 0.00, 0.00, 0.00, -0.064, -1.040, -0.064, 19:16:45.394, 1589044605394
163, -7.47, 0.00, 0.00, 0.00, -0.064, -1.040, -0.064, 19:16:45.406, 1589044605406
164, -397.26, 0.00, 0.00, 0.00, -0.064, -1.040, -0.064, 19:16:45.406, 1589044605406
165, -393.02, 0.00, 0.00, 0.00, -0.064, -1.040, -0.064, 19:16:45.421, 1589044605421
166, -28.58, 0.00, 0.00, 0.00, -0.064, -1.024, -0.064, 19:16:45.421, 1589044605421
167, -7.04, 0.00, 0.00, 0.00, -0.064, -1.024, -0.064, 19:16:45.422, 1589044605422
168, -418.87, 0.00, 0.00, 0.00, -0.064, -1.024, -0.064, 19:16:45.422, 1589044605422
169, -396.46, 0.00, 0.00, 0.00, -0.064, -1.024, -0.064, 19:16:45.436, 1589044605436
170, -43.25, 0.00, 0.00, 0.00, -0.064, -1.024, -0.064, 19:16:45.436, 1589044605436
171, -5.90, 0.00, 0.00, 0.00, -0.064, -1.024, -0.064, 19:16:45.451, 1589044605451
172, -418.95, 0.00, 0.00, 0.00, -0.064, -1.024, -0.064, 19:16:45.451, 1589044605451
173, -386.45, 0.00, 0.00, 0.00, -0.064, -1.024, -0.064, 19:16:45.452, 1589044605452
174, -12.69, 0.00, 0.00, 0.00, -0.064, -1.024, -0.064, 19:16:45.452, 1589044605452
175, -0.83, 0.00, 0.00, 0.00, -0.064, -1.024, -0.064, 19:16:45.466, 1589044605466
176, -417.26, 0.00, 0.00, 0.00, -0.064, -1.024, -0.064, 19:16:45.466, 1589044605466
177, -384.27, 0.00, 0.00, 0.00, -0.064, -1.024, -0.064, 19:16:45.482, 1589044605482
178, -25.74, 0.00, 0.00, 0.00, -0.064, -1.024, -0.064, 19:16:45.482, 1589044605482
179, -7.02, 0.00, 0.00, 0.00, -0.064, -1.024, -0.064, 19:16:45.483, 1589044605483
180, -412.03, 0.00, 0.00, 0.00, -0.064, -1.024, -0.064, 19:16:45.483, 1589044605483
181, -377.72, 0.00, 0.00, 0.00, -0.064, -1.024, -0.064, 19:16:45.496, 1589044605496
182, -25.20, 0.00, 0.00, 0.00, -0.064, -1.024, -0.064, 19:16:45.496, 1589044605496
183, 3.23, 0.00, 0.00, 0.00, -0.064, -1.024, -0.064, 19:16:45.511, 1589044605511
184, -412.79, 0.00, 0.00, 0.00, -0.064, -1.024, -0.064, 19:16:45.511, 1589044605511
185, -386.01, 0.00, 0.00, 0.00, -0.064, -1.024, -0.064, 19:16:45.512, 1589044605512
186, -8.46, 0.00, 0.00, 0.00, -0.064, -1.040, -0.080, 19:16:45.512, 1589044605512
187, 11.22, 0.00, 0.00, 0.00, -0.064, -1.040, -0.080, 19:16:45.526, 1589044605526
188, -402.58, 0.00, 0.00, 0.00, -0.064, -1.040, -0.080, 19:16:45.526, 1589044605526
189, -390.23, 0.00, 0.00, 0.00, -0.064, -1.040, -0.080, 19:16:45.542, 1589044605542
190, -20.51, 0.00, 0.00, 0.00, -0.064, -1.040, -0.080, 19:16:45.542, 1589044605542
191, -2.92, 0.00, 0.00, 0.00, -0.064, -1.040, -0.080, 19:16:45.542, 1589044605542
192, -408.11, 0.00, 0.00, 0.00, -0.064, -1.040, -0.080, 19:16:45.542, 1589044605542
193, -369.00, 0.00, 0.00, 0.00, -0.064, -1.040, -0.080, 19:16:45.556, 1589044605556
194, -25.18, 0.00, 0.00, 0.00, -0.064, -1.040, -0.080, 19:16:45.556, 1589044605556
195, 4.29, 0.00, 0.00, 0.00, -0.064, -1.040, -0.080, 19:16:45.571, 1589044605571
196, -403.11, 0.00, 0.00, 0.00, -0.064, -1.040, -0.080, 19:16:45.571, 1589044605571
197, -384.98, 0.00, 0.00, 0.00, -0.064, -1.040, -0.080, 19:16:45.572, 1589044605572
198, -12.15, 0.00, 0.00, 0.00, -0.064, -1.040, -0.080, 19:16:45.572, 1589044605572
199, -1.07, 0.00, 0.00, 0.00, -0.064, -1.040, -0.080, 19:16:45.586, 1589044605586
200, -413.96, 0.00, 0.00, 0.00, -0.064, -1.040, -0.080, 19:16:45.586, 1589044605586
0, -377.66, 0.00, 0.00, 0.00, -0.064, -1.040, -0.080, 19:16:45.587, 1589044605587
1, -18.36, 0.00, 0.00, 0.00, -0.064, -1.040, -0.080, 19:16:45.601, 1589044605601
2, 4.83, 0.00, 0.00, 0.00, -0.064, -1.040, -0.080, 19:16:45.601, 1589044605601
3, -413.75, 0.00, 0.00, 0.00, -0.064, -1.040, -0.080, 19:16:45.616, 1589044605616
4, -395.79, 0.00, 0.00, 0.00, -0.064, -1.040, -0.080, 19:16:45.616, 1589044605616
5, -24.92, 0.00, 0.00, 0.00, -0.064, -1.040, -0.080, 19:16:45.617, 1589044605617
6, -10.48, 0.00, 0.00, 0.00, -0.064, -1.040, -0.080, 19:16:45.617, 1589044605617
7, -418.68, 0.00, 0.00, 0.00, -0.064, -1.040, -0.080, 19:16:45.631, 1589044605631
8, -381.22, 0.00, 0.00, 0.00, -0.064, -1.040, -0.080, 19:16:45.631, 1589044605631
9, -36.31, 0.00, 0.00, 0.00, -0.064, -1.040, -0.080, 19:16:45.664, 1589044605664
10, -17.08, 0.00, 0.00, 0.00, -0.064, -1.040, -0.080, 19:16:45.664, 1589044605664
11, -418.01, 0.00, 0.00, 0.00, -0.064, -1.040, -0.080, 19:16:45.664, 1589044605664
12, -401.21, 0.00, 0.00, 0.00, -0.064, -1.040, -0.080, 19:16:45.664, 1589044605664
13, -46.81, 0.00, 0.00, 0.00, -0.064, -1.040, -0.080, 19:16:45.665, 1589044605665
14, -24.38, 0.00, 0.00, 0.00, -0.064, -1.040, -0.080, 19:16:45.665, 1589044605665
15, -415.76, 0.00, 0.00, 0.00, -0.064, -1.040, -0.080, 19:16:45.665, 1589044605665
16, -404.17, 0.00, 0.00, 0.00, -0.064, -1.040, -0.080, 19:16:45.665, 1589044605665
17, -48.97, 0.00, 0.00, 0.00, -0.064, -1.040, -0.080, 19:16:45.676, 1589044605676
18, -12.65, 0.00, 0.00, 0.00, -0.064, -1.040, -0.080, 19:16:45.676, 1589044605676
19, -427.30, 0.00, 0.00, 0.00, -0.064, -1.040, -0.080, 19:16:45.691, 1589044605691
20, -407.50, 0.00, 0.00, 0.00, -0.064, -1.040, -0.080, 19:16:45.691, 1589044605691
21, -44.23, 0.00, 0.00, 0.00, -0.064, -1.040, -0.080, 19:16:45.706, 1589044605706
22, -14.81, 0.00, 0.00, 0.00, -0.064, -1.040, -0.080, 19:16:45.706, 1589044605706
23, -421.66, 0.00, 0.00, 0.00, -0.064, -1.040, -0.080, 19:16:45.707, 1589044605707
24, -403.58, 0.00, 0.00, 0.00, -0.064, -1.040, -0.080, 19:16:45.707, 1589044605707
25, -46.95, 0.00, 0.00, 0.00, -0.064, -1.040, -0.080, 19:16:45.721, 1589044605721
26, -5.56, 0.00, 0.00, 0.00, -0.064, -1.040, -0.080, 19:16:45.721, 1589044605721
27, -427.24, 0.00, 0.00, 0.00, -0.064, -1.040, -0.080, 19:16:45.737, 1589044605737
28, -409.16, 0.00, 0.00, 0.00, -0.064, -1.040, -0.080, 19:16:45.737, 1589044605737
29, -20.11, 0.00, 0.00, 0.00, -0.064, -1.040, -0.080, 19:16:45.737, 1589044605737
30, -5.10, 0.00, 0.00, 0.00, -0.064, -1.040, -0.080, 19:16:45.737, 1589044605737
31, -435.38, 0.00, 0.00, 0.00, -0.064, -1.040, -0.080, 19:16:45.751, 1589044605751
32, -398.94, 0.00, 0.00, 0.00, -0.064, -1.040, -0.080, 19:16:45.751, 1589044605751
33, -31.71, 0.00, 0.00, 0.00, -0.064, -1.040, -0.080, 19:16:45.766, 1589044605766
34, -7.05, 0.00, 0.00, 0.00, -0.064, -1.040, -0.080, 19:16:45.766, 1589044605766
35, -428.19, 0.00, 0.00, 0.00, -0.064, -1.040, -0.080, 19:16:45.767, 1589044605767
36, -393.10, 0.00, 0.00, 0.00, -0.064, -1.040, -0.080, 19:16:45.767, 1589044605767
37, -33.09, 0.00, 0.00, 0.00, -0.064, -1.040, -0.080, 19:16:45.781, 1589044605781
38, -9.01, 0.00, 0.00, 0.00, -0.064, -1.040, -0.080, 19:16:45.781, 1589044605781
39, -416.31, 0.00, 0.00, 0.00, -0.064, -1.040, -0.080, 19:16:45.797, 1589044605797
40, -402.62, 0.00, 0.00, 0.00, -0.064, -1.040, -0.080, 19:16:45.797, 1589044605797
41, -39.30, 0.00, 0.00, 0.00, -0.064, -1.040, -0.080, 19:16:45.798, 1589044605798
42, -3.89, 0.00, 0.00, 0.00, -0.064, -1.040, -0.080, 19:16:45.798, 1589044605798
43, -429.16, 0.00, 0.00, 0.00, -0.064, -1.040, -0.080, 19:16:45.811, 1589044605811
44, -404.98, 0.00, 0.00, 0.00, -0.064, -1.040, -0.080, 19:16:45.811, 1589044605811
45, -32.78, 0.00, 0.00, 0.00, -0.064, -1.040, -0.080, 19:16:45.843, 1589044605843
46, 3.67, 0.00, 0.00, 0.00, -0.064, -1.040, -0.064, 19:16:45.843, 1589044605843
47, -429.38, 0.00, 0.00, 0.00, -0.064, -1.040, -0.064, 19:16:45.844, 1589044605844
48, -403.32, 0.00, 0.00, 0.00, -0.064, -1.040, -0.064, 19:16:45.844, 1589044605844
49, -20.82, 0.00, 0.00, 0.00, -0.064, -1.040, -0.064, 19:16:45.844, 1589044605844
50, -5.97, 0.00, 0.00, 0.00, -0.064, -1.040, -0.064, 19:16:45.844, 1589044605844
51, -421.04, 0.00, 0.00, 0.00, -0.064, -1.040, -0.064, 19:16:45.845, 1589044605845
52, -387.68, 0.00, 0.00, 0.00, -0.064, -1.040, -0.064, 19:16:45.845, 1589044605845
53, -25.91, 0.00, 0.00, 0.00, -0.064, -1.040, -0.064, 19:16:45.856, 1589044605856
54, -3.53, 0.00, 0.00, 0.00, -0.064, -1.040, -0.064, 19:16:45.856, 1589044605856
55, -431.00, 0.00, 0.00, 0.00, -0.064, -1.040, -0.064, 19:16:45.887, 1589044605887
56, -398.41, 0.00, 0.00, 0.00, -0.064, -1.040, -0.064, 19:16:45.887, 1589044605887
57, -33.14, 0.00, 0.00, 0.00, -0.064, -1.040, -0.064, 19:16:45.888, 1589044605888
58, -0.42, 0.00, 0.00, 0.00, -0.064, -1.040, -0.064, 19:16:45.888, 1589044605888
59, -431.79, 0.00, 0.00, 0.00, -0.064, -1.040, -0.064, 19:16:45.889, 1589044605889
60, -410.79, 0.00, 0.00, 0.00, -0.064, -1.040, -0.064, 19:16:45.889, 1589044605889
61, -33.87, 0.00, 0.00, 0.00, -0.064, -1.040, -0.064, 19:16:45.901, 1589044605901
62, -1.39, 0.00, 0.00, 0.00, -0.064, -1.040, -0.064, 19:16:45.901, 1589044605901
63, -436.72, 0.00, 0.00, 0.00, -0.064, -1.040, -0.064, 19:16:45.916, 1589044605916
64, -398.94, 0.00, 0.00, 0.00, -0.064, -1.040, -0.064, 19:16:45.916, 1589044605916
65, -25.01, 0.00, 0.00, 0.00, -0.064, -1.040, -0.064, 19:16:45.917, 1589044605917
66, -11.06, 0.00, 0.00, 0.00, -0.064, -1.024, -0.080, 19:16:45.917, 1589044605917
67, -436.22, 0.00, 0.00, 0.00, -0.064, -1.024, -0.080, 19:16:45.931, 1589044605931
68, -404.62, 0.00, 0.00, 0.00, -0.064, -1.024, -0.080, 19:16:45.931, 1589044605931
69, -40.50, 0.00, 0.00, 0.00, -0.064, -1.024, -0.080, 19:16:45.946, 1589044605946
70, -12.77, 0.00, 0.00, 0.00, -0.064, -1.024, -0.080, 19:16:45.946, 1589044605946
71, -434.73, 0.00, 0.00, 0.00, -0.064, -1.024, -0.080, 19:16:45.947, 1589044605947
72, -398.41, 0.00, 0.00, 0.00, -0.064, -1.024, -0.080, 19:16:45.947, 1589044605947
73, -38.62, 0.00, 0.00, 0.00, -0.064, -1.024, -0.080, 19:16:45.961, 1589044605961
74, -14.30, 0.00, 0.00, 0.00, -0.064, -1.024, -0.080, 19:16:45.961, 1589044605961
75, -425.38, 0.00, 0.00, 0.00, -0.064, -1.024, -0.080, 19:16:45.976, 1589044605976
76, -413.83, 0.00, 0.00, 0.00, -0.064, -1.024, -0.080, 19:16:45.976, 1589044605976
77, -44.24, 0.00, 0.00, 0.00, -0.064, -1.024, -0.080, 19:16:45.977, 1589044605977
78, -4.24, 0.00, 0.00, 0.00, -0.064, -1.024, -0.080, 19:16:45.977, 1589044605977
79, -438.53, 0.00, 0.00, 0.00, -0.064, -1.024, -0.080, 19:16:45.991, 1589044605991
80, -415.17, 0.00, 0.00, 0.00, -0.064, -1.024, -0.080, 19:16:45.991, 1589044605991
81, -34.72, 0.00, 0.00, 0.00, -0.064, -1.024, -0.080, 19:16:46.006, 1589044606006
82, -19.87, 0.00, 0.00, 0.00, -0.064, -1.024, -0.080, 19:16:46.006, 1589044606006
83, -441.88, 0.00, 0.00, 0.00, -0.064, -1.024, -0.080, 19:16:46.007, 1589044606007
84, -420.63, 0.00, 0.00, 0.00, -0.064, -1.024, -0.080, 19:16:46.007, 1589044606007
85, -37.92, 0.00, 0.00, 0.00, -0.064, -1.024, -0.080, 19:16:46.021, 1589044606021
86, -17.41, 0.00, 0.00, 0.00, -0.064, -1.024, -0.080, 19:16:46.021, 1589044606021
87, -439.74, 0.00, 0.00, 0.00, -0.064, -1.024, -0.080, 19:16:46.036, 1589044606036
88, -399.91, 0.00, 0.00, 0.00, -0.064, -1.024, -0.080, 19:16:46.036, 1589044606036
89, -49.15, 0.00, 0.00, 0.00, -0.064, -1.024, -0.080, 19:16:46.037, 1589044606037
90, -21.21, 0.00, 0.00, 0.00, -0.064, -1.024, -0.080, 19:16:46.037, 1589044606037
91, -430.70, 0.00, 0.00, 0.00, -0.064, -1.024, -0.080, 19:16:46.067, 1589044606067
92, -417.73, 0.00, 0.00, 0.00, -0.064, -1.024, -0.080, 19:16:46.067, 1589044606067
93, -49.21, 0.00, 0.00, 0.00, -0.064, -1.024, -0.080, 19:16:46.068, 1589044606068
94, -17.49, 0.00, 0.00, 0.00, -0.064, -1.024, -0.080, 19:16:46.068, 1589044606068
95, -441.47, 0.00, 0.00, 0.00, -0.064, -1.024, -0.080, 19:16:46.069, 1589044606069
96, -419.30, 0.00, 0.00, 0.00, -0.064, -1.024, -0.080, 19:16:46.069, 1589044606069
97, -46.43, 0.00, 0.00, 0.00, -0.064, -1.024, -0.080, 19:16:46.082, 1589044606082
98, -12.30, 0.00, 0.00, 0.00, -0.064, -1.024, -0.080, 19:16:46.082, 1589044606082
99, -447.87, 0.00, 0.00, 0.00, -0.064, -1.024, -0.080, 19:16:46.113, 1589044606113
100, -431.51, 0.00, 0.00, 0.00, -0.064, -1.024, -0.080, 19:16:46.113, 1589044606113
101, -43.06, 0.00, 0.00, 0.00, -0.064, -1.024, -0.080, 19:16:46.113, 1589044606113
102, -25.43, 0.00, 0.00, 0.00, -0.064, -1.024, -0.080, 19:16:46.113, 1589044606113
103, -447.09, 0.00, 0.00, 0.00, -0.064, -1.024, -0.080, 19:16:46.114, 1589044606114
104, -419.80, 0.00, 0.00, 0.00, -0.064, -1.024, -0.080, 19:16:46.114, 1589044606114
105, -50.36, 0.00, 0.00, 0.00, -0.064, -1.024, -0.080, 19:16:46.115, 1589044606115
106, -25.12, 0.00, 0.00, 0.00, -0.064, -1.040, -0.080, 19:16:46.115, 1589044606115
107, -454.05, 0.00, 0.00, 0.00, -0.064, -1.040, -0.080, 19:16:46.126, 1589044606126
108, -423.25, 0.00, 0.00, 0.00, -0.064, -1.040, -0.080, 19:16:46.126, 1589044606126
109, -51.71, 0.00, 0.00, 0.00, -0.064, -1.040, -0.080, 19:16:46.141, 1589044606141
110, -22.39, 0.00, 0.00, 0.00, -0.064, -1.040, -0.080, 19:16:46.141, 1589044606141
111, -437.45, 0.00, 0.00, 0.00, -0.064, -1.040, -0.080, 19:16:46.189, 1589044606189
112, -420.10, 0.00, 0.00, 0.00, -0.064, -1.040, -0.080, 19:16:46.189, 1589044606189
113, -55.55, 0.00, 0.00, 0.00, -0.064, -1.040, -0.080, 19:16:46.189, 1589044606189
114, -29.65, 0.00, 0.00, 0.00, -0.064, -1.040, -0.080, 19:16:46.189, 1589044606189
115, -456.83, 0.00, 0.00, 0.00, -0.064, -1.040, -0.080, 19:16:46.190, 1589044606190
116, -436.82, 0.00, 0.00, 0.00, -0.064, -1.040, -0.080, 19:16:46.190, 1589044606190
117, -63.88, 0.00, 0.00, 0.00, -0.064, -1.040, -0.080, 19:16:46.190, 1589044606190
118, -28.69, 0.00, 0.00, 0.00, -0.064, -1.040, -0.080, 19:16:46.190, 1589044606190
119, -439.44, 0.00, 0.00, 0.00, -0.064, -1.040, -0.080, 19:16:46.202, 1589044606202
120, -433.38, 0.00, 0.00, 0.00, -0.064, -1.040, -0.080, 19:16:46.202, 1589044606202
121, -56.25, 0.00, 0.00, 0.00, -0.064, -1.040, -0.080, 19:16:46.203, 1589044606203
122, -19.41, 0.00, 0.00, 0.00, -0.064, -1.040, -0.080, 19:16:46.203, 1589044606203
123, -449.61, 0.00, 0.00, 0.00, -0.064, -1.040, -0.080, 19:16:46.216, 1589044606216
124, -428.69, 0.00, 0.00, 0.00, -0.064, -1.040, -0.080, 19:16:46.216, 1589044606216
125, -59.63, 0.00, 0.00, 0.00, -0.064, -1.040, -0.080, 19:16:46.217, 1589044606217
126, -19.49, 0.00, 0.00, 0.00, -0.064, -1.024, -0.080, 19:16:46.217, 1589044606217
127, -453.44, 0.00, 0.00, 0.00, -0.064, -1.024, -0.080, 19:16:46.231, 1589044606231
128, -429.49, 0.00, 0.00, 0.00, -0.064, -1.024, -0.080, 19:16:46.231, 1589044606231
129, -42.17, 0.00, 0.00, 0.00, -0.064, -1.024, -0.080, 19:16:46.246, 1589044606246
130, -36.24, 0.00, 0.00, 0.00, -0.064, -1.024, -0.080, 19:16:46.246, 1589044606246
131, -460.59, 0.00, 0.00, 0.00, -0.064, -1.024, -0.080, 19:16:46.247, 1589044606247
132, -424.47, 0.00, 0.00, 0.00, -0.064, -1.024, -0.080, 19:16:46.247, 1589044606247
133, -55.53, 0.00, 0.00, 0.00, -0.064, -1.024, -0.080, 19:16:46.261, 1589044606261
134, -25.77, 0.00, 0.00, 0.00, -0.064, -1.024, -0.080, 19:16:46.261, 1589044606261
135, -454.11, 0.00, 0.00, 0.00, -0.064, -1.024, -0.080, 19:16:46.276, 1589044606276
136, -419.87, 0.00, 0.00, 0.00, -0.064, -1.024, -0.080, 19:16:46.276, 1589044606276
137, -62.43, 0.00, 0.00, 0.00, -0.064, -1.024, -0.080, 19:16:46.291, 1589044606291
138, -28.41, 0.00, 0.00, 0.00, -0.064, -1.024, -0.080, 19:16:46.291, 1589044606291
139, -438.18, 0.00, 0.00, 0.00, -0.064, -1.024, -0.080, 19:16:46.292, 1589044606292
140, -433.69, 0.00, 0.00, 0.00, -0.064, -1.024, -0.080, 19:16:46.292, 1589044606292
141, -55.41, 0.00, 0.00, 0.00, -0.064, -1.024, -0.080, 19:16:46.306, 1589044606306
142, -25.52, 0.00, 0.00, 0.00, -0.064, -1.024, -0.080, 19:16:46.306, 1589044606306
143, -455.45, 0.00, 0.00, 0.00, -0.064, -1.024, -0.080, 19:16:46.307, 1589044606307
144, -428.13, 0.00, 0.00, 0.00, -0.064, -1.024, -0.080, 19:16:46.307, 1589044606307
145, -57.79, 0.00, 0.00, 0.00, -0.064, -1.024, -0.080, 19:16:46.321, 1589044606321
146, -17.99, 0.00, 0.00, 0.00, -0.064, -1.040, -0.080, 19:16:46.321, 1589044606321
147, -448.59, 0.00, 0.00, 0.00, -0.064, -1.040, -0.080, 19:16:46.336, 1589044606336
148, -432.21, 0.00, 0.00, 0.00, -0.064, -1.040, -0.080, 19:16:46.336, 1589044606336
149, -39.79, 0.00, 0.00, 0.00, -0.064, -1.040, -0.080, 19:16:46.337, 1589044606337
150, -21.85, 0.00, 0.00, 0.00, -0.064, -1.040, -0.080, 19:16:46.337, 1589044606337
151, -444.63, 0.00, 0.00, 0.00, -0.064, -1.040, -0.080, 19:16:46.351, 1589044606351
152, -416.73, 0.00, 0.00, 0.00, -0.064, -1.040, -0.080, 19:16:46.351, 1589044606351
153, -53.33, 0.00, 0.00, 0.00, -0.064, -1.040, -0.080, 19:16:46.367, 1589044606367
154, -24.31, 0.00, 0.00, 0.00, -0.064, -1.040, -0.080, 19:16:46.367, 1589044606367
155, -442.58, 0.00, 0.00, 0.00, -0.064, -1.040, -0.080, 19:16:46.367, 1589044606367
156, -412.68, 0.00, 0.00, 0.00, -0.064, -1.040, -0.080, 19:16:46.367, 1589044606367
157, -49.80, 0.00, 0.00, 0.00, -0.064, -1.040, -0.080, 19:16:46.397, 1589044606397
158, -20.55, 0.00, 0.00, 0.00, -0.064, -1.040, -0.080, 19:16:46.397, 1589044606397
159, -423.74, 0.00, 0.00, 0.00, -0.064, -1.040, -0.080, 19:16:46.398, 1589044606398
160, -405.83, 0.00, 0.00, 0.00, -0.064, -1.040, -0.080, 19:16:46.398, 1589044606398
161, -42.75, 0.00, 0.00, 0.00, -0.064, -1.040, -0.080, 19:16:46.398, 1589044606398
162, -9.68, 0.00, 0.00, 0.00, -0.064, -1.040, -0.080, 19:16:46.398, 1589044606398
163, -432.03, 0.00, 0.00, 0.00, -0.064, -1.040, -0.080, 19:16:46.411, 1589044606411
164, -404.02, 0.00, 0.00, 0.00, -0.064, -1.040, -0.080, 19:16:46.411, 1589044606411
165, -37.92, 0.00, 0.00, 0.00, -0.064, -1.040, -0.080, 19:16:46.426, 1589044606426
166, -3.61, 0.00, 0.00, 0.00, -0.064, -1.040, -0.080, 19:16:46.426, 1589044606426
167, -423.73, 0.00, 0.00, 0.00, -0.064, -1.040, -0.080, 19:16:46.427, 1589044606427
168, -409.65, 0.00, 0.00, 0.00, -0.064, -1.040, -0.080, 19:16:46.427, 1589044606427
169, -39.04, 0.00, 0.00, 0.00, -0.064, -1.040, -0.080, 19:16:46.441, 1589044606441
170, 2.16, 0.00, 0.00, 0.00, -0.064, -1.040, -0.080, 19:16:46.441, 1589044606441
171, -425.09, 0.00, 0.00, 0.00, -0.064, -1.040, -0.080, 19:16:46.456, 1589044606456
172, -405.17, 0.00, 0.00, 0.00, -0.064, -1.040, -0.080, 19:16:46.456, 1589044606456
173, -32.51, 0.00, 0.00, 0.00, -0.064, -1.040, -0.080, 19:16:46.457, 1589044606457
174, 3.86, 0.00, 0.00, 0.00, -0.064, -1.040, -0.080, 19:16:46.457, 1589044606457
175, -429.16, 0.00, 0.00, 0.00, -0.064, -1.040, -0.080, 19:16:46.471, 1589044606471
176, -399.78, 0.00, 0.00, 0.00, -0.064, -1.040, -0.080, 19:16:46.471, 1589044606471
177, -22.35, 0.00, 0.00, 0.00, -0.064, -1.040, -0.080, 19:16:46.487, 1589044606487
178, -9.81, 0.00, 0.00, 0.00, -0.064, -1.040, -0.080, 19:16:46.487, 1589044606487
179, -431.32, 0.00, 0.00, 0.00, -0.064, -1.040, -0.080, 19:16:46.487, 1589044606487
180, -405.90, 0.00, 0.00, 0.00, -0.064, -1.040, -0.080, 19:16:46.487, 1589044606487
181, -32.14, 0.00, 0.00, 0.00, -0.064, -1.040, -0.080, 19:16:46.521, 1589044606521
182, -10.56, 0.00, 0.00, 0.00, -0.064, -1.040, -0.080, 19:16:46.521, 1589044606521
183, -432.96, 0.00, 0.00, 0.00, -0.064, -1.040, -0.080, 19:16:46.522, 1589044606522
184, -399.37, 0.00, 0.00, 0.00, -0.064, -1.040, -0.080, 19:16:46.522, 1589044606522
185, -42.76, 0.00, 0.00, 0.00, -0.064, -1.040, -0.080, 19:16:46.522, 1589044606522
186, -4.96, 0.00, 0.00, 0.00, -0.048, -1.040, -0.080, 19:16:46.522, 1589044606522
187, -422.22, 0.00, 0.00, 0.00, -0.048, -1.040, -0.080, 19:16:46.531, 1589044606531
188, -420.03, 0.00, 0.00, 0.00, -0.048, -1.040, -0.080, 19:16:46.531, 1589044606531
189, -40.80, 0.00, 0.00, 0.00, -0.048, -1.040, -0.080, 19:16:46.546, 1589044606546
190, -3.67, 0.00, 0.00, 0.00, -0.048, -1.040, -0.080, 19:16:46.546, 1589044606546
191, -436.20, 0.00, 0.00, 0.00, -0.048, -1.040, -0.080, 19:16:46.547, 1589044606547
192, -412.14, 0.00, 0.00, 0.00, -0.048, -1.040, -0.080, 19:16:46.547, 1589044606547
193, -39.17, 0.00, 0.00, 0.00, -0.048, -1.040, -0.080, 19:16:46.561, 1589044606561
194, -11.66, 0.00, 0.00, 0.00, -0.048, -1.040, -0.080, 19:16:46.561, 1589044606561
195, -444.22, 0.00, 0.00, 0.00, -0.048, -1.040, -0.080, 19:16:46.576, 1589044606576
196, -421.41, 0.00, 0.00, 0.00, -0.048, -1.040, -0.080, 19:16:46.576, 1589044606576
197, -39.74, 0.00, 0.00, 0.00, -0.048, -1.040, -0.080, 19:16:46.577, 1589044606577
198, -21.12, 0.00, 0.00, 0.00, -0.048, -1.040, -0.080, 19:16:46.577, 1589044606577
199, -444.15, 0.00, 0.00, 0.00, -0.048, -1.040, -0.080, 19:16:46.592, 1589044606592
200, -419.24, 0.00, 0.00, 0.00, -0.048, -1.040, -0.080, 19:16:46.592, 1589044606592
0, -50.17, 0.00, 0.00, 0.00, -0.048, -1.040, -0.080, 19:16:46.593, 1589044606593
1, -16.71, 0.00, 0.00, 0.00, -0.048, -1.040, -0.080, 19:16:46.607, 1589044606607
2, -439.57, 0.00, 0.00, 0.00, -0.048, -1.040, -0.080, 19:16:46.607, 1589044606607
3, -416.78, 0.00, 0.00, 0.00, -0.048, -1.040, -0.080, 19:16:46.621, 1589044606621
4, -48.25, 0.00, 0.00, 0.00, -0.048, -1.040, -0.080, 19:16:46.621, 1589044606621
5, -21.01, 0.00, 0.00, 0.00, -0.048, -1.040, -0.080, 19:16:46.622, 1589044606622
6, -423.56, 0.00, 0.00, 0.00, -0.048, -1.040, -0.080, 19:16:46.622, 1589044606622
7, -417.38, 0.00, 0.00, 0.00, -0.048, -1.040, -0.080, 19:16:46.652, 1589044606652
8, -52.41, 0.00, 0.00, 0.00, -0.048, -1.040, -0.080, 19:16:46.652, 1589044606652
9, -2.87, 0.00, 0.00, 0.00, -0.048, -1.040, -0.080, 19:16:46.654, 1589044606654
10, -442.97, 0.00, 0.00, 0.00, -0.048, -1.040, -0.080, 19:16:46.654, 1589044606654
11, -419.65, 0.00, 0.00, 0.00, -0.048, -1.040, -0.080, 19:16:46.655, 1589044606655
12, -38.33, 0.00, 0.00, 0.00, -0.048, -1.040, -0.080, 19:16:46.655, 1589044606655
13, -10.68, 0.00, 0.00, 0.00, -0.048, -1.040, -0.080, 19:16:46.666, 1589044606666
14, -441.75, 0.00, 0.00, 0.00, -0.048, -1.040, -0.080, 19:16:46.666, 1589044606666
15, -417.58, 0.00, 0.00, 0.00, -0.048, -1.040, -0.080, 19:16:46.682, 1589044606682
16, -40.48, 0.00, 0.00, 0.00, -0.048, -1.040, -0.080, 19:16:46.682, 1589044606682
17, -16.66, 0.00, 0.00, 0.00, -0.048, -1.040, -0.080, 19:16:46.682, 1589044606682
18, -437.16, 0.00, 0.00, 0.00, -0.048, -1.040, -0.080, 19:16:46.682, 1589044606682
19, -413.68, 0.00, 0.00, 0.00, -0.048, -1.040, -0.080, 19:16:46.696, 1589044606696
20, -41.20, 0.00, 0.00, 0.00, -0.048, -1.040, -0.080, 19:16:46.696, 1589044606696
21, -10.27, 0.00, 0.00, 0.00, -0.048, -1.040, -0.080, 19:16:46.711, 1589044606711
22, -438.28, 0.00, 0.00, 0.00, -0.048, -1.040, -0.080, 19:16:46.711, 1589044606711
23, -419.22, 0.00, 0.00, 0.00, -0.048, -1.040, -0.080, 19:16:46.712, 1589044606712
24, -33.06, 0.00, 0.00, 0.00, -0.048, -1.040, -0.080, 19:16:46.712, 1589044606712
25, -18.36, 0.00, 0.00, 0.00, -0.048, -1.040, -0.080, 19:16:46.726, 1589044606726
26, -446.40, 0.00, 0.00, 0.00, -0.048, -1.040, -0.096, 19:16:46.726, 1589044606726
27, -410.94, 0.00, 0.00, 0.00, -0.048, -1.040, -0.096, 19:16:46.741, 1589044606741
28, -49.90, 0.00, 0.00, 0.00, -0.048, -1.040, -0.096, 19:16:46.741, 1589044606741
29, -14.45, 0.00, 0.00, 0.00, -0.048, -1.040, -0.096, 19:16:46.742, 1589044606742
30, -443.22, 0.00, 0.00, 0.00, -0.048, -1.040, -0.096, 19:16:46.742, 1589044606742
31, -424.04, 0.00, 0.00, 0.00, -0.048, -1.040, -0.096, 19:16:46.772, 1589044606772
32, -38.83, 0.00, 0.00, 0.00, -0.048, -1.040, -0.096, 19:16:46.772, 1589044606772
33, -12.21, 0.00, 0.00, 0.00, -0.048, -1.040, -0.096, 19:16:46.773, 1589044606773
34, -436.56, 0.00, 0.00, 0.00, -0.048, -1.040, -0.096, 19:16:46.773, 1589044606773
35, -423.54, 0.00, 0.00, 0.00, -0.048, -1.040, -0.096, 19:16:46.773, 1589044606773
36, -36.80, 0.00, 0.00, 0.00, -0.048, -1.040, -0.096, 19:16:46.773, 1589044606773
37, -10.26, 0.00, 0.00, 0.00, -0.048, -1.040, -0.096, 19:16:46.786, 1589044606786
