%OpenBCI Raw EEG Data
%Number of channels = 4
%Sample Rate = 200.0 Hz
%First Column = SampleIndex
%Last Column = Timestamp 
%Other Columns = EEG data in microvolts followed by Accel Data (in G) interleaved with Aux Data
0, 427.16, 0.00, 0.00, 0.00, 0.064, -0.992, -0.320, 19:29:40.477, 1589045380477
1, 348.17, 0.00, 0.00, 0.00, 0.064, -0.992, -0.320, 19:29:40.490, 1589045380490
2, 50.75, 0.00, 0.00, 0.00, 0.064, -0.992, -0.320, 19:29:40.490, 1589045380490
3, 106.93, 0.00, 0.00, 0.00, 0.064, -0.992, -0.320, 19:29:40.506, 1589045380506
4, 427.18, 0.00, 0.00, 0.00, 0.064, -0.992, -0.320, 19:29:40.506, 1589045380506
5, 353.34, 0.00, 0.00, 0.00, 0.064, -0.992, -0.320, 19:29:40.507, 1589045380507
6, 47.56, 0.00, 0.00, 0.00, 0.064, -0.992, -0.320, 19:29:40.507, 1589045380507
7, 129.75, 0.00, 0.00, 0.00, 0.064, -0.992, -0.320, 19:29:40.522, 1589045380522
8, 439.54, 0.00, 0.00, 0.00, 0.064, -0.992, -0.320, 19:29:40.522, 1589045380522
9, 348.97, 0.00, 0.00, 0.00, 0.064, -0.992, -0.320, 19:29:40.536, 1589045380536
10, 52.88, 0.00, 0.00, 0.00, 0.064, -0.992, -0.320, 19:29:40.536, 1589045380536
11, 124.45, 0.00, 0.00, 0.00, 0.064, -0.992, -0.320, 19:29:40.537, 1589045380537
12, 422.59, 0.00, 0.00, 0.00, 0.064, -0.992, -0.320, 19:29:40.537, 1589045380537
13, 348.55, 0.00, 0.00, 0.00, 0.064, -0.992, -0.320, 19:29:40.550, 1589045380550
14, 49.15, 0.00, 0.00, 0.00, 0.064, -0.992, -0.320, 19:29:40.550, 1589045380550
15, 118.78, 0.00, 0.00, 0.00, 0.064, -0.992, -0.320, 19:29:40.567, 1589045380567
16, 420.99, 0.00, 0.00, 0.00, 0.064, -0.992, -0.320, 19:29:40.567, 1589045380567
17, 347.12, 0.00, 0.00, 0.00, 0.064, -0.992, -0.320, 19:29:40.567, 1589045380567
18, 39.51, 0.00, 0.00, 0.00, 0.064, -0.992, -0.320, 19:29:40.567, 1589045380567
19, 122.39, 0.00, 0.00, 0.00, 0.064, -0.992, -0.320, 19:29:40.581, 1589045380581
20, 424.13, 0.00, 0.00, 0.00, 0.064, -0.992, -0.320, 19:29:40.581, 1589045380581
21, 335.44, 0.00, 0.00, 0.00, 0.064, -0.992, -0.320, 19:29:40.596, 1589045380596
22, 40.14, 0.00, 0.00, 0.00, 0.064, -0.992, -0.320, 19:29:40.596, 1589045380596
23, 119.02, 0.00, 0.00, 0.00, 0.064, -0.992, -0.320, 19:29:40.597, 1589045380597
24, 436.38, 0.00, 0.00, 0.00, 0.064, -0.992, -0.320, 19:29:40.597, 1589045380597
25, 350.09, 0.00, 0.00, 0.00, 0.064, -0.992, -0.320, 19:29:40.627, 1589045380627
26, 34.98, 0.00, 0.00, 0.00, 0.064, -0.992, -0.320, 19:29:40.627, 1589045380627
27, 128.98, 0.00, 0.00, 0.00, 0.064, -0.992, -0.320, 19:29:40.627, 1589045380627
28, 420.72, 0.00, 0.00, 0.00, 0.064, -0.992, -0.320, 19:29:40.627, 1589045380627
29, 339.61, 0.00, 0.00, 0.00, 0.064, -0.992, -0.320, 19:29:40.628, 1589045380628
30, 45.44, 0.00, 0.00, 0.00, 0.064, -0.992, -0.320, 19:29:40.628, 1589045380628
31, 117.55, 0.00, 0.00, 0.00, 0.064, -0.992, -0.320, 19:29:40.641, 1589045380641
32, 425.52, 0.00, 0.00, 0.00, 0.064, -0.992, -0.320, 19:29:40.641, 1589045380641
33, 347.69, 0.00, 0.00, 0.00, 0.064, -0.992, -0.320, 19:29:40.656, 1589045380656
34, 37.89, 0.00, 0.00, 0.00, 0.064, -0.992, -0.320, 19:29:40.656, 1589045380656
35, 136.28, 0.00, 0.00, 0.00, 0.064, -0.992, -0.320, 19:29:40.671, 1589045380671
36, 420.33, 0.00, 0.00, 0.00, 0.064, -0.992, -0.320, 19:29:40.671, 1589045380671
37, 348.70, 0.00, 0.00, 0.00, 0.064, -0.992, -0.320, 19:29:40.672, 1589045380672
38, 41.08, 0.00, 0.00, 0.00, 0.064, -0.992, -0.320, 19:29:40.672, 1589045380672
39, 116.31, 0.00, 0.00, 0.00, 0.064, -0.992, -0.320, 19:29:40.686, 1589045380686
40, 419.87, 0.00, 0.00, 0.00, 0.064, -0.992, -0.320, 19:29:40.686, 1589045380686
41, 345.10, 0.00, 0.00, 0.00, 0.064, -0.992, -0.320, 19:29:40.687, 1589045380687
42, 36.62, 0.00, 0.00, 0.00, 0.064, -0.992, -0.320, 19:29:40.687, 1589045380687
43, 128.66, 0.00, 0.00, 0.00, 0.064, -0.992, -0.320, 19:29:40.700, 1589045380700
44, 421.48, 0.00, 0.00, 0.00, 0.064, -0.992, -0.320, 19:29:40.700, 1589045380700
45, 343.94, 0.00, 0.00, 0.00, 0.064, -0.992, -0.320, 19:29:40.716, 1589045380716
46, 45.05, 0.00, 0.00, 0.00, 0.064, -0.992, -0.320, 19:29:40.716, 1589045380716
47, 123.12, 0.00, 0.00, 0.00, 0.064, -0.992, -0.320, 19:29:40.717, 1589045380717
48, 432.91, 0.00, 0.00, 0.00, 0.064, -0.992, -0.320, 19:29:40.717, 1589045380717
49, 339.04, 0.00, 0.00, 0.00, 0.064, -0.992, -0.320, 19:29:40.731, 1589045380731
50, 40.37, 0.00, 0.00, 0.00, 0.064, -0.992, -0.320, 19:29:40.731, 1589045380731
51, 117.14, 0.00, 0.00, 0.00, 0.064, -0.992, -0.320, 19:29:40.746, 1589045380746
52, 425.22, 0.00, 0.00, 0.00, 0.064, -0.992, -0.320, 19:29:40.746, 1589045380746
53, 356.42, 0.00, 0.00, 0.00, 0.064, -0.992, -0.320, 19:29:40.747, 1589045380747
54, 39.37, 0.00, 0.00, 0.00, 0.064, -0.992, -0.320, 19:29:40.747, 1589045380747
55, 120.53, 0.00, 0.00, 0.00, 0.064, -0.992, -0.320, 19:29:40.765, 1589045380765
56, 437.33, 0.00, 0.00, 0.00, 0.064, -0.992, -0.320, 19:29:40.765, 1589045380765
57, 350.54, 0.00, 0.00, 0.00, 0.064, -0.992, -0.320, 19:29:40.777, 1589045380777
58, 44.29, 0.00, 0.00, 0.00, 0.064, -0.992, -0.320, 19:29:40.777, 1589045380777
59, 112.63, 0.00, 0.00, 0.00, 0.064, -0.992, -0.320, 19:29:40.778, 1589045380778
60, 424.86, 0.00, 0.00, 0.00, 0.064, -0.992, -0.320, 19:29:40.778, 1589045380778
61, 342.78, 0.00, 0.00, 0.00, 0.064, -0.992, -0.320, 19:29:40.791, 1589045380791
62, 48.66, 0.00, 0.00, 0.00, 0.064, -0.992, -0.320, 19:29:40.791, 1589045380791
63, 121.92, 0.00, 0.00, 0.00, 0.064, -0.992, -0.320, 19:29:40.807, 1589045380807
64, 413.97, 0.00, 0.00, 0.00, 0.064, -0.992, -0.320, 19:29:40.807, 1589045380807
65, 348.44, 0.00, 0.00, 0.00, 0.064, -0.992, -0.320, 19:29:40.810, 1589045380810
66, 25.02, 0.00, 0.00, 0.00, 0.064, -0.992, -0.320, 19:29:40.810, 1589045380810
67, 113.29, 0.00, 0.00, 0.00, 0.064, -0.992, -0.320, 19:29:40.820, 1589045380820
68, 425.20, 0.00, 0.00, 0.00, 0.064, -0.992, -0.320, 19:29:40.820, 1589045380820
69, 338.46, 0.00, 0.00, 0.00, 0.064, -0.992, -0.320, 19:29:40.852, 1589045380852
70, 28.74, 0.00, 0.00, 0.00, 0.064, -0.992, -0.320, 19:29:40.852, 1589045380852
71, 115.94, 0.00, 0.00, 0.00, 0.064, -0.992, -0.320, 19:29:40.853, 1589045380853
72, 438.13, 0.00, 0.00, 0.00, 0.064, -0.992, -0.320, 19:29:40.853, 1589045380853
73, 344.19, 0.00, 0.00, 0.00, 0.064, -0.992, -0.320, 19:29:40.854, 1589045380854
74, 29.55, 0.00, 0.00, 0.00, 0.064, -0.992, -0.320, 19:29:40.854, 1589045380854
75, 118.12, 0.00, 0.00, 0.00, 0.064, -0.992, -0.320, 19:29:40.855, 1589045380855
76, 411.71, 0.00, 0.00, 0.00, 0.064, -0.992, -0.320, 19:29:40.855, 1589045380855
77, 341.77, 0.00, 0.00, 0.00, 0.064, -0.992, -0.320, 19:29:40.865, 1589045380865
78, 34.19, 0.00, 0.00, 0.00, 0.064, -0.992, -0.320, 19:29:40.865, 1589045380865
79, 105.43, 0.00, 0.00, 0.00, 0.064, -0.992, -0.320, 19:29:40.881, 1589045380881
80, 402.81, 0.00, 0.00, 0.00, 0.064, -0.992, -0.320, 19:29:40.881, 1589045380881
81, 348.48, 0.00, 0.00, 0.00, 0.064, -0.992, -0.320, 19:29:40.896, 1589045380896
82, 30.10, 0.00, 0.00, 0.00, 0.064, -0.992, -0.320, 19:29:40.896, 1589045380896
83, 120.79, 0.00, 0.00, 0.00, 0.064, -0.992, -0.320, 19:29:40.897, 1589045380897
84, 415.46, 0.00, 0.00, 0.00, 0.064, -0.992, -0.320, 19:29:40.897, 1589045380897
85, 339.92, 0.00, 0.00, 0.00, 0.064, -0.992, -0.320, 19:29:40.910, 1589045380910
86, 22.77, 0.00, 0.00, 0.00, 0.064, -0.992, -0.320, 19:29:40.910, 1589045380910
87, 130.17, 0.00, 0.00, 0.00, 0.064, -0.992, -0.320, 19:29:40.927, 1589045380927
88, 415.76, 0.00, 0.00, 0.00, 0.064, -0.992, -0.320, 19:29:40.927, 1589045380927
89, 324.23, 0.00, 0.00, 0.00, 0.064, -0.992, -0.320, 19:29:40.927, 1589045380927
90, 29.53, 0.00, 0.00, 0.00, 0.064, -0.992, -0.320, 19:29:40.927, 1589045380927
91, 129.10, 0.00, 0.00, 0.00, 0.064, -0.992, -0.320, 19:29:40.941, 1589045380941
92, 422.77, 0.00, 0.00, 0.00, 0.064, -0.992, -0.320, 19:29:40.941, 1589045380941
93, 340.91, 0.00, 0.00, 0.00, 0.064, -0.992, -0.320, 19:29:40.974, 1589045380974
94, 24.43, 0.00, 0.00, 0.00, 0.064, -0.992, -0.320, 19:29:40.974, 1589045380974
95, 122.76, 0.00, 0.00, 0.00, 0.064, -0.992, -0.320, 19:29:40.974, 1589045380974
96, 422.04, 0.00, 0.00, 0.00, 0.064, -0.992, -0.320, 19:29:40.974, 1589045380974
97, 352.06, 0.00, 0.00, 0.00, 0.064, -0.992, -0.320, 19:29:40.975, 1589045380975
98, 35.93, 0.00, 0.00, 0.00, 0.064, -0.992, -0.320, 19:29:40.975, 1589045380975
99, 112.59, 0.00, 0.00, 0.00, 0.064, -0.992, -0.320, 19:29:40.975, 1589045380975
100, 421.05, 0.00, 0.00, 0.00, 0.064, -0.992, -0.320, 19:29:40.975, 1589045380975
101, 348.93, 0.00, 0.00, 0.00, 0.064, -0.992, -0.320, 19:29:41.002, 1589045381002
102, 35.07, 0.00, 0.00, 0.00, 0.064, -0.992, -0.320, 19:29:41.002, 1589045381002
103, 123.72, 0.00, 0.00, 0.00, 0.064, -0.992, -0.320, 19:29:41.003, 1589045381003
104, 427.63, 0.00, 0.00, 0.00, 0.064, -0.992, -0.320, 19:29:41.003, 1589045381003
105, 353.59, 0.00, 0.00, 0.00, 0.064, -0.992, -0.320, 19:29:41.016, 1589045381016
106, 35.86, 0.00, 0.00, 0.00, 0.064, -0.992, -0.320, 19:29:41.016, 1589045381016
107, 129.11, 0.00, 0.00, 0.00, 0.064, -0.992, -0.320, 19:29:41.017, 1589045381017
108, 416.72, 0.00, 0.00, 0.00, 0.064, -0.992, -0.320, 19:29:41.017, 1589045381017
109, 336.40, 0.00, 0.00, 0.00, 0.064, -0.992, -0.320, 19:29:41.031, 1589045381031
110, 47.96, 0.00, 0.00, 0.00, 0.064, -0.992, -0.320, 19:29:41.031, 1589045381031
111, 114.71, 0.00, 0.00, 0.00, 0.064, -0.992, -0.320, 19:29:41.046, 1589045381046
112, 414.26, 0.00, 0.00, 0.00, 0.064, -0.992, -0.320, 19:29:41.046, 1589045381046
113, 330.57, 0.00, 0.00, 0.00, 0.064, -0.992, -0.320, 19:29:41.047, 1589045381047
114, 30.29, 0.00, 0.00, 0.00, 0.064, -0.992, -0.320, 19:29:41.047, 1589045381047
115, 120.90, 0.00, 0.00, 0.00, 0.064, -0.992, -0.320, 19:29:41.062, 1589045381062
116, 434.16, 0.00, 0.00, 0.00, 0.064, -0.992, -0.320, 19:29:41.062, 1589045381062
117, 326.68, 0.00, 0.00, 0.00, 0.064, -0.992, -0.320, 19:29:41.077, 1589045381077
118, 52.16, 0.00, 0.00, 0.00, 0.064, -0.992, -0.320, 19:29:41.077, 1589045381077
119, 114.21, 0.00, 0.00, 0.00, 0.064, -0.992, -0.320, 19:29:41.078, 1589045381078
120, 423.81, 0.00, 0.00, 0.00, 0.064, -0.992, -0.320, 19:29:41.078, 1589045381078
121, 335.17, 0.00, 0.00, 0.00, 0.064, -0.992, -0.320, 19:29:41.091, 1589045381091
122, 36.68, 0.00, 0.00, 0.00, 0.064, -0.992, -0.320, 19:29:41.091, 1589045381091
123, 100.71, 0.00, 0.00, 0.00, 0.064, -0.992, -0.320, 19:29:41.106, 1589045381106
124, 422.37, 0.00, 0.00, 0.00, 0.064, -0.992, -0.320, 19:29:41.106, 1589045381106
125, 341.53, 0.00, 0.00, 0.00, 0.064, -0.992, -0.320, 19:29:41.107, 1589045381107
126, 9.39, 0.00, 0.00, 0.00, 0.064, -0.992, -0.320, 19:29:41.107, 1589045381107
127, 119.19, 0.00, 0.00, 0.00, 0.064, -0.992, -0.320, 19:29:41.121, 1589045381121
128, 419.44, 0.00, 0.00, 0.00, 0.064, -0.992, -0.320, 19:29:41.121, 1589045381121
129, 330.97, 0.00, 0.00, 0.00, 0.064, -0.992, -0.320, 19:29:41.136, 1589045381136
130, 33.98, 0.00, 0.00, 0.00, 0.064, -0.992, -0.320, 19:29:41.136, 1589045381136
131, 111.70, 0.00, 0.00, 0.00, 0.064, -0.992, -0.320, 19:29:41.137, 1589045381137
132, 402.97, 0.00, 0.00, 0.00, 0.064, -0.992, -0.320, 19:29:41.137, 1589045381137
133, 323.39, 0.00, 0.00, 0.00, 0.064, -0.992, -0.320, 19:29:41.150, 1589045381150
134, 23.19, 0.00, 0.00, 0.00, 0.064, -0.992, -0.320, 19:29:41.150, 1589045381150
135, 113.55, 0.00, 0.00, 0.00, 0.064, -0.992, -0.320, 19:29:41.183, 1589045381183
136, 402.07, 0.00, 0.00, 0.00, 0.064, -0.992, -0.320, 19:29:41.183, 1589045381183
137, 337.90, 0.00, 0.00, 0.00, 0.064, -0.992, -0.320, 19:29:41.183, 1589045381183
138, 20.94, 0.00, 0.00, 0.00, 0.064, -0.992, -0.320, 19:29:41.183, 1589045381183
139, 99.35, 0.00, 0.00, 0.00, 0.064, -0.992, -0.320, 19:29:41.184, 1589045381184
140, 408.40, 0.00, 0.00, 0.00, 0.064, -0.992, -0.320, 19:29:41.184, 1589045381184
141, 317.54, 0.00, 0.00, 0.00, 0.064, -0.992, -0.320, 19:29:41.185, 1589045381185
142, 14.95, 0.00, 0.00, 0.00, 0.064, -0.992, -0.320, 19:29:41.185, 1589045381185
143, 101.06, 0.00, 0.00, 0.00, 0.064, -0.992, -0.320, 19:29:41.195, 1589045381195
144, 410.81, 0.00, 0.00, 0.00, 0.064, -0.992, -0.320, 19:29:41.195, 1589045381195
145, 312.41, 0.00, 0.00, 0.00, 0.064, -0.992, -0.320, 19:29:41.211, 1589045381211
146, 8.71, 0.00, 0.00, 0.00, 0.064, -0.992, -0.320, 19:29:41.211, 1589045381211
147, 106.00, 0.00, 0.00, 0.00, 0.064, -0.992, -0.320, 19:29:41.226, 1589045381226
148, 402.42, 0.00, 0.00, 0.00, 0.064, -0.992, -0.320, 19:29:41.226, 1589045381226
149, 315.15, 0.00, 0.00, 0.00, 0.064, -0.992, -0.320, 19:29:41.227, 1589045381227
150, 3.72, 0.00, 0.00, 0.00, 0.064, -0.992, -0.320, 19:29:41.227, 1589045381227
151, 99.74, 0.00, 0.00, 0.00, 0.064, -0.992, -0.320, 19:29:41.240, 1589045381240
152, 407.91, 0.00, 0.00, 0.00, 0.064, -0.992, -0.320, 19:29:41.241, 1589045381241
153, 330.40, 0.00, 0.00, 0.00, 0.064, -0.992, -0.320, 19:29:41.256, 1589045381256
154, -6.63, 0.00, 0.00, 0.00, 0.064, -0.992, -0.320, 19:29:41.256, 1589045381256
155, 94.69, 0.00, 0.00, 0.00, 0.064, -0.992, -0.320, 19:29:41.258, 1589045381258
156, 401.78, 0.00, 0.00, 0.00, 0.064, -0.992, -0.320, 19:29:41.258, 1589045381258
157, 311.35, 0.00, 0.00, 0.00, 0.064, -0.992, -0.320, 19:29:41.270, 1589045381270
158, 11.06, 0.00, 0.00, 0.00, 0.064, -0.992, -0.320, 19:29:41.270, 1589045381270
159, 97.40, 0.00, 0.00, 0.00, 0.064, -0.992, -0.320, 19:29:41.286, 1589045381286
160, 394.56, 0.00, 0.00, 0.00, 0.064, -0.992, -0.320, 19:29:41.286, 1589045381286
161, 289.54, 0.00, 0.00, 0.00, 0.064, -0.992, -0.320, 19:29:41.287, 1589045381287
162, 6.77, 0.00, 0.00, 0.00, 0.064, -0.992, -0.320, 19:29:41.287, 1589045381287
163, 81.08, 0.00, 0.00, 0.00, 0.064, -0.992, -0.320, 19:29:41.301, 1589045381301
164, 382.76, 0.00, 0.00, 0.00, 0.064, -0.992, -0.320, 19:29:41.301, 1589045381301
165, 312.85, 0.00, 0.00, 0.00, 0.064, -0.992, -0.320, 19:29:41.316, 1589045381316
166, -8.81, 0.00, 0.00, 0.00, 0.064, -0.992, -0.320, 19:29:41.316, 1589045381316
167, 90.52, 0.00, 0.00, 0.00, 0.064, -0.992, -0.320, 19:29:41.317, 1589045381317
168, 388.42, 0.00, 0.00, 0.00, 0.064, -0.992, -0.320, 19:29:41.317, 1589045381317
169, 293.35, 0.00, 0.00, 0.00, 0.064, -0.992, -0.320, 19:29:41.331, 1589045381331
170, -18.06, 0.00, 0.00, 0.00, 0.064, -0.992, -0.320, 19:29:41.331, 1589045381331
171, 75.08, 0.00, 0.00, 0.00, 0.064, -0.992, -0.320, 19:29:41.346, 1589045381346
172, 406.23, 0.00, 0.00, 0.00, 0.064, -0.992, -0.320, 19:29:41.346, 1589045381346
173, 303.80, 0.00, 0.00, 0.00, 0.064, -0.992, -0.320, 19:29:41.347, 1589045381347
174, -22.14, 0.00, 0.00, 0.00, 0.064, -0.992, -0.320, 19:29:41.347, 1589045381347
175, 95.65, 0.00, 0.00, 0.00, 0.064, -0.992, -0.320, 19:29:41.361, 1589045381361
176, 387.22, 0.00, 0.00, 0.00, 0.064, -0.992, -0.320, 19:29:41.361, 1589045381361
177, 302.44, 0.00, 0.00, 0.00, 0.064, -0.992, -0.320, 19:29:41.376, 1589045381376
178, 0.73, 0.00, 0.00, 0.00, 0.064, -0.992, -0.320, 19:29:41.376, 1589045381376
179, 79.49, 0.00, 0.00, 0.00, 0.064, -0.992, -0.320, 19:29:41.377, 1589045381377
180, 382.13, 0.00, 0.00, 0.00, 0.064, -0.992, -0.320, 19:29:41.377, 1589045381377
181, 299.12, 0.00, 0.00, 0.00, 0.064, -0.992, -0.320, 19:29:41.407, 1589045381407
182, -12.61, 0.00, 0.00, 0.00, 0.064, -0.992, -0.320, 19:29:41.407, 1589045381407
183, 89.91, 0.00, 0.00, 0.00, 0.064, -0.992, -0.320, 19:29:41.409, 1589045381409
184, 392.01, 0.00, 0.00, 0.00, 0.064, -0.992, -0.320, 19:29:41.409, 1589045381409
185, 307.51, 0.00, 0.00, 0.00, 0.064, -0.992, -0.320, 19:29:41.409, 1589045381409
186, -12.71, 0.00, 0.00, 0.00, 0.064, -0.992, -0.320, 19:29:41.409, 1589045381409
187, 82.89, 0.00, 0.00, 0.00, 0.064, -0.992, -0.320, 19:29:41.421, 1589045381421
188, 416.67, 0.00, 0.00, 0.00, 0.064, -0.992, -0.320, 19:29:41.421, 1589045381421
189, 293.07, 0.00, 0.00, 0.00, 0.064, -0.992, -0.320, 19:29:41.436, 1589045381436
190, -19.99, 0.00, 0.00, 0.00, 0.064, -0.992, -0.320, 19:29:41.436, 1589045381436
191, 92.14, 0.00, 0.00, 0.00, 0.064, -0.992, -0.320, 19:29:41.437, 1589045381437
192, 393.75, 0.00, 0.00, 0.00, 0.064, -0.992, -0.320, 19:29:41.437, 1589045381437
193, 296.79, 0.00, 0.00, 0.00, 0.064, -0.992, -0.320, 19:29:41.451, 1589045381451
194, -14.86, 0.00, 0.00, 0.00, 0.064, -0.992, -0.320, 19:29:41.451, 1589045381451
195, 76.74, 0.00, 0.00, 0.00, 0.064, -0.992, -0.320, 19:29:41.466, 1589045381466
196, 388.89, 0.00, 0.00, 0.00, 0.064, -0.992, -0.320, 19:29:41.466, 1589045381466
197, 297.95, 0.00, 0.00, 0.00, 0.064, -0.992, -0.320, 19:29:41.467, 1589045381467
198, -12.44, 0.00, 0.00, 0.00, 0.064, -0.992, -0.320, 19:29:41.467, 1589045381467
199, 67.94, 0.00, 0.00, 0.00, 0.064, -0.992, -0.320, 19:29:41.481, 1589045381481
200, 387.49, 0.00, 0.00, 0.00, 0.064, -0.992, -0.320, 19:29:41.481, 1589045381481
0, 298.23, 0.00, 0.00, 0.00, 0.064, -0.992, -0.320, 19:29:41.482, 1589045381482
1, -14.58, 0.00, 0.00, 0.00, 0.064, -0.992, -0.320, 19:29:41.495, 1589045381495
2, 67.51, 0.00, 0.00, 0.00, 0.064, -0.992, -0.320, 19:29:41.495, 1589045381495
3, 389.28, 0.00, 0.00, 0.00, 0.064, -0.992, -0.320, 19:29:41.511, 1589045381511
4, 297.50, 0.00, 0.00, 0.00, 0.064, -0.992, -0.320, 19:29:41.511, 1589045381511
5, -2.98, 0.00, 0.00, 0.00, 0.064, -0.992, -0.320, 19:29:41.512, 1589045381512
6, 88.20, 0.00, 0.00, 0.00, 0.064, -0.992, -0.320, 19:29:41.512, 1589045381512
7, 387.93, 0.00, 0.00, 0.00, 0.064, -0.992, -0.320, 19:29:41.526, 1589045381526
8, 297.37, 0.00, 0.00, 0.00, 0.064, -0.992, -0.320, 19:29:41.526, 1589045381526
9, -3.27, 0.00, 0.00, 0.00, 0.064, -0.992, -0.320, 19:29:41.541, 1589045381541
10, 86.48, 0.00, 0.00, 0.00, 0.064, -0.992, -0.320, 19:29:41.541, 1589045381541
11, 397.37, 0.00, 0.00, 0.00, 0.064, -0.992, -0.320, 19:29:41.543, 1589045381543
12, 294.93, 0.00, 0.00, 0.00, 0.064, -0.992, -0.320, 19:29:41.543, 1589045381543
13, -12.27, 0.00, 0.00, 0.00, 0.064, -0.992, -0.320, 19:29:41.556, 1589045381556
14, 92.79, 0.00, 0.00, 0.00, 0.064, -0.992, -0.320, 19:29:41.556, 1589045381556
15, 401.72, 0.00, 0.00, 0.00, 0.064, -0.992, -0.320, 19:29:41.572, 1589045381572
16, 305.91, 0.00, 0.00, 0.00, 0.064, -0.992, -0.320, 19:29:41.572, 1589045381572
17, -6.15, 0.00, 0.00, 0.00, 0.064, -0.992, -0.320, 19:29:41.572, 1589045381572
18, 82.97, 0.00, 0.00, 0.00, 0.064, -0.992, -0.320, 19:29:41.572, 1589045381572
19, 403.02, 0.00, 0.00, 0.00, 0.064, -0.992, -0.320, 19:29:41.585, 1589045381585
20, 315.61, 0.00, 0.00, 0.00, 0.064, -0.992, -0.320, 19:29:41.585, 1589045381585
21, -1.36, 0.00, 0.00, 0.00, 0.064, -0.992, -0.320, 19:29:41.601, 1589045381601
22, 94.50, 0.00, 0.00, 0.00, 0.064, -0.992, -0.320, 19:29:41.601, 1589045381601
23, 395.42, 0.00, 0.00, 0.00, 0.064, -0.992, -0.320, 19:29:41.602, 1589045381602
24, 306.44, 0.00, 0.00, 0.00, 0.064, -0.992, -0.320, 19:29:41.602, 1589045381602
25, 1.28, 0.00, 0.00, 0.00, 0.064, -0.992, -0.320, 19:29:41.616, 1589045381616
26, 87.37, 0.00, 0.00, 0.00, 0.064, -0.992, -0.320, 19:29:41.616, 1589045381616
27, 400.94, 0.00, 0.00, 0.00, 0.064, -0.992, -0.320, 19:29:41.631, 1589045381631
28, 296.71, 0.00, 0.00, 0.00, 0.064, -0.992, -0.320, 19:29:41.631, 1589045381631
29, 5.63, 0.00, 0.00, 0.00, 0.064, -0.992, -0.320, 19:29:41.632, 1589045381632
30, 106.74, 0.00, 0.00, 0.00, 0.064, -0.992, -0.320, 19:29:41.632, 1589045381632
31, 397.88, 0.00, 0.00, 0.00, 0.064, -0.992, -0.320, 19:29:41.646, 1589045381646
32, 298.82, 0.00, 0.00, 0.00, 0.064, -0.992, -0.320, 19:29:41.646, 1589045381646
33, -9.33, 0.00, 0.00, 0.00, 0.064, -0.992, -0.320, 19:29:41.661, 1589045381661
34, 105.52, 0.00, 0.00, 0.00, 0.064, -0.992, -0.320, 19:29:41.661, 1589045381661
35, 409.49, 0.00, 0.00, 0.00, 0.064, -0.992, -0.320, 19:29:41.662, 1589045381662
36, 288.96, 0.00, 0.00, 0.00, 0.064, -0.992, -0.320, 19:29:41.662, 1589045381662
37, -5.71, 0.00, 0.00, 0.00, 0.064, -0.992, -0.320, 19:29:41.677, 1589045381677
38, 100.64, 0.00, 0.00, 0.00, 0.064, -0.992, -0.320, 19:29:41.677, 1589045381677
39, 404.35, 0.00, 0.00, 0.00, 0.064, -0.992, -0.320, 19:29:41.692, 1589045381692
40, 306.42, 0.00, 0.00, 0.00, 0.064, -0.992, -0.320, 19:29:41.692, 1589045381692
41, -1.75, 0.00, 0.00, 0.00, 0.064, -0.992, -0.320, 19:29:41.706, 1589045381706
42, 76.41, 0.00, 0.00, 0.00, 0.064, -0.992, -0.320, 19:29:41.706, 1589045381706
43, 393.43, 0.00, 0.00, 0.00, 0.064, -0.992, -0.320, 19:29:41.707, 1589045381707
44, 312.40, 0.00, 0.00, 0.00, 0.064, -0.992, -0.320, 19:29:41.707, 1589045381707
45, 12.52, 0.00, 0.00, 0.00, 0.064, -0.992, -0.320, 19:29:41.738, 1589045381738
46, 80.83, 0.00, 0.00, 0.00, 0.064, -0.992, -0.320, 19:29:41.738, 1589045381738
47, 395.99, 0.00, 0.00, 0.00, 0.064, -0.992, -0.320, 19:29:41.738, 1589045381738
48, 312.93, 0.00, 0.00, 0.00, 0.064, -0.992, -0.320, 19:29:41.738, 1589045381738
49, -5.29, 0.00, 0.00, 0.00, 0.064, -0.992, -0.320, 19:29:41.744, 1589045381744
50, 83.51, 0.00, 0.00, 0.00, 0.064, -0.992, -0.320, 19:29:41.744, 1589045381744
51, 391.34, 0.00, 0.00, 0.00, 0.064, -0.992, -0.320, 19:29:41.744, 1589045381744
52, 296.74, 0.00, 0.00, 0.00, 0.064, -0.992, -0.320, 19:29:41.744, 1589045381744
53, -8.44, 0.00, 0.00, 0.00, 0.064, -0.992, -0.320, 19:29:41.751, 1589045381751
54, 84.11, 0.00, 0.00, 0.00, 0.064, -0.992, -0.320, 19:29:41.751, 1589045381751
55, 395.80, 0.00, 0.00, 0.00, 0.064, -0.992, -0.320, 19:29:41.766, 1589045381766
56, 287.64, 0.00, 0.00, 0.00, 0.064, -0.992, -0.320, 19:29:41.766, 1589045381766
57, -18.00, 0.00, 0.00, 0.00, 0.064, -0.992, -0.320, 19:29:41.782, 1589045381782
58, 91.47, 0.00, 0.00, 0.00, 0.064, -0.992, -0.320, 19:29:41.782, 1589045381782
59, 371.71, 0.00, 0.00, 0.00, 0.064, -0.992, -0.320, 19:29:41.782, 1589045381782
60, 282.14, 0.00, 0.00, 0.00, 0.064, -0.992, -0.320, 19:29:41.782, 1589045381782
61, -16.42, 0.00, 0.00, 0.00, 0.064, -0.992, -0.320, 19:29:41.795, 1589045381795
62, 82.04, 0.00, 0.00, 0.00, 0.064, -0.992, -0.320, 19:29:41.795, 1589045381795
63, 383.77, 0.00, 0.00, 0.00, 0.064, -0.992, -0.320, 19:29:41.812, 1589045381812
64, 285.70, 0.00, 0.00, 0.00, 0.064, -0.992, -0.320, 19:29:41.812, 1589045381812
65, -21.61, 0.00, 0.00, 0.00, 0.064, -0.992, -0.320, 19:29:41.812, 1589045381812
66, 65.60, 0.00, 0.00, 0.00, 0.064, -0.992, -0.320, 19:29:41.812, 1589045381812
67, 392.17, 0.00, 0.00, 0.00, 0.064, -0.992, -0.320, 19:29:41.826, 1589045381826
68, 301.33, 0.00, 0.00, 0.00, 0.064, -0.992, -0.320, 19:29:41.826, 1589045381826
69, -34.10, 0.00, 0.00, 0.00, 0.064, -0.992, -0.320, 19:29:41.841, 1589045381841
70, 70.58, 0.00, 0.00, 0.00, 0.064, -0.992, -0.320, 19:29:41.841, 1589045381841
71, 403.62, 0.00, 0.00, 0.00, 0.064, -0.992, -0.320, 19:29:41.842, 1589045381842
72, 289.04, 0.00, 0.00, 0.00, 0.064, -0.992, -0.320, 19:29:41.842, 1589045381842
73, -23.28, 0.00, 0.00, 0.00, 0.064, -0.992, -0.320, 19:29:41.856, 1589045381856
74, 67.90, 0.00, 0.00, 0.00, 0.064, -0.992, -0.320, 19:29:41.856, 1589045381856
75, 375.87, 0.00, 0.00, 0.00, 0.064, -0.992, -0.320, 19:29:41.871, 1589045381871
76, 284.63, 0.00, 0.00, 0.00, 0.064, -0.992, -0.320, 19:29:41.871, 1589045381871
77, -25.50, 0.00, 0.00, 0.00, 0.064, -0.992, -0.320, 19:29:41.872, 1589045381872
78, 91.71, 0.00, 0.00, 0.00, 0.064, -0.992, -0.320, 19:29:41.872, 1589045381872
79, 376.93, 0.00, 0.00, 0.00, 0.064, -0.992, -0.320, 19:29:41.886, 1589045381886
80, 278.89, 0.00, 0.00, 0.00, 0.064, -0.992, -0.320, 19:29:41.886, 1589045381886
81, -12.83, 0.00, 0.00, 0.00, 0.064, -0.992, -0.320, 19:29:41.901, 1589045381901
82, 78.78, 0.00, 0.00, 0.00, 0.064, -0.992, -0.320, 19:29:41.901, 1589045381901
83, 384.19, 0.00, 0.00, 0.00, 0.064, -0.992, -0.320, 19:29:41.902, 1589045381902
84, 282.85, 0.00, 0.00, 0.00, 0.064, -0.992, -0.320, 19:29:41.902, 1589045381902
85, -30.77, 0.00, 0.00, 0.00, 0.064, -0.992, -0.320, 19:29:41.916, 1589045381916
86, 81.19, 0.00, 0.00, 0.00, 0.064, -0.992, -0.320, 19:29:41.916, 1589045381916
87, 381.42, 0.00, 0.00, 0.00, 0.064, -0.992, -0.320, 19:29:41.932, 1589045381932
88, 282.12, 0.00, 0.00, 0.00, 0.064, -0.992, -0.320, 19:29:41.932, 1589045381932
89, -27.26, 0.00, 0.00, 0.00, 0.064, -0.992, -0.320, 19:29:41.932, 1589045381932
90, 84.78, 0.00, 0.00, 0.00, 0.064, -0.992, -0.320, 19:29:41.932, 1589045381932
91, 388.97, 0.00, 0.00, 0.00, 0.064, -0.992, -0.320, 19:29:41.945, 1589045381945
92, 283.28, 0.00, 0.00, 0.00, 0.064, -0.992, -0.320, 19:29:41.945, 1589045381945
93, -15.59, 0.00, 0.00, 0.00, 0.064, -0.992, -0.320, 19:29:41.961, 1589045381961
94, 76.09, 0.00, 0.00, 0.00, 0.064, -0.992, -0.320, 19:29:41.961, 1589045381961
95, 374.93, 0.00, 0.00, 0.00, 0.064, -0.992, -0.320, 19:29:41.962, 1589045381962
96, 304.19, 0.00, 0.00, 0.00, 0.064, -0.992, -0.320, 19:29:41.962, 1589045381962
97, -19.87, 0.00, 0.00, 0.00, 0.064, -0.992, -0.320, 19:29:41.992, 1589045381992
98, 61.71, 0.00, 0.00, 0.00, 0.064, -0.992, -0.320, 19:29:41.992, 1589045381992
99, 379.57, 0.00, 0.00, 0.00, 0.064, -0.992, -0.320, 19:29:41.992, 1589045381992
100, 279.74, 0.00, 0.00, 0.00, 0.064, -0.992, -0.320, 19:29:41.992, 1589045381992
101, -30.01, 0.00, 0.00, 0.00, 0.064, -0.992, -0.320, 19:29:41.993, 1589045381993
102, 77.94, 0.00, 0.00, 0.00, 0.064, -0.992, -0.320, 19:29:41.993, 1589045381993
103, 376.49, 0.00, 0.00, 0.00, 0.064, -0.992, -0.320, 19:29:42.006, 1589045382006
104, 278.95, 0.00, 0.00, 0.00, 0.064, -0.992, -0.320, 19:29:42.006, 1589045382006
105, -33.38, 0.00, 0.00, 0.00, 0.064, -0.992, -0.320, 19:29:42.021, 1589045382021
106, 72.48, 0.00, 0.00, 0.00, 0.064, -0.992, -0.320, 19:29:42.021, 1589045382021
107, 383.47, 0.00, 0.00, 0.00, 0.064, -0.992, -0.320, 19:29:42.022, 1589045382022
108, 275.29, 0.00, 0.00, 0.00, 0.064, -0.992, -0.320, 19:29:42.022, 1589045382022
109, -35.82, 0.00, 0.00, 0.00, 0.064, -0.992, -0.320, 19:29:42.035, 1589045382035
110, 70.53, 0.00, 0.00, 0.00, 0.064, -0.992, -0.320, 19:29:42.035, 1589045382035
111, 393.33, 0.00, 0.00, 0.00, 0.064, -0.992, -0.320, 19:29:42.051, 1589045382051
112, 277.94, 0.00, 0.00, 0.00, 0.064, -0.992, -0.320, 19:29:42.051, 1589045382051
113, -47.91, 0.00, 0.00, 0.00, 0.064, -0.992, -0.320, 19:29:42.052, 1589045382052
114, 67.83, 0.00, 0.00, 0.00, 0.064, -0.992, -0.320, 19:29:42.052, 1589045382052
115, 392.94, 0.00, 0.00, 0.00, 0.064, -0.992, -0.320, 19:29:42.082, 1589045382082
116, 282.19, 0.00, 0.00, 0.00, 0.064, -0.992, -0.320, 19:29:42.082, 1589045382082
117, -37.76, 0.00, 0.00, 0.00, 0.064, -0.992, -0.320, 19:29:42.082, 1589045382082
118, 70.62, 0.00, 0.00, 0.00, 0.064, -0.992, -0.320, 19:29:42.082, 1589045382082
119, 380.65, 0.00, 0.00, 0.00, 0.064, -0.992, -0.320, 19:29:42.083, 1589045382083
120, 290.21, 0.00, 0.00, 0.00, 0.064, -0.992, -0.320, 19:29:42.083, 1589045382083
121, -36.96, 0.00, 0.00, 0.00, 0.064, -0.992, -0.320, 19:29:42.112, 1589045382112
122, 62.37, 0.00, 0.00, 0.00, 0.064, -0.992, -0.320, 19:29:42.112, 1589045382112
123, 385.90, 0.00, 0.00, 0.00, 0.064, -0.992, -0.320, 19:29:42.113, 1589045382113
124, 279.52, 0.00, 0.00, 0.00, 0.064, -0.992, -0.320, 19:29:42.113, 1589045382113
125, -26.59, 0.00, 0.00, 0.00, 0.064, -0.992, -0.320, 19:29:42.113, 1589045382113
126, 80.45, 0.00, 0.00, 0.00, 0.064, -0.992, -0.320, 19:29:42.113, 1589045382113
127, 379.80, 0.00, 0.00, 0.00, 0.064, -0.992, -0.320, 19:29:42.126, 1589045382126
128, 269.39, 0.00, 0.00, 0.00, 0.064, -0.992, -0.320, 19:29:42.126, 1589045382126
129, -39.24, 0.00, 0.00, 0.00, 0.064, -0.992, -0.320, 19:29:42.141, 1589045382141
130, 71.06, 0.00, 0.00, 0.00, 0.064, -0.992, -0.320, 19:29:42.141, 1589045382141
131, 391.76, 0.00, 0.00, 0.00, 0.064, -0.992, -0.320, 19:29:42.142, 1589045382142
132, 264.88, 0.00, 0.00, 0.00, 0.064, -0.992, -0.320, 19:29:42.142, 1589045382142
133, -38.66, 0.00, 0.00, 0.00, 0.064, -0.992, -0.320, 19:29:42.155, 1589045382155
134, 82.97, 0.00, 0.00, 0.00, 0.064, -0.992, -0.320, 19:29:42.156, 1589045382156
135, 390.07, 0.00, 0.00, 0.00, 0.064, -0.992, -0.320, 19:29:42.171, 1589045382171
136, 284.18, 0.00, 0.00, 0.00, 0.064, -0.992, -0.320, 19:29:42.171, 1589045382171
137, -43.09, 0.00, 0.00, 0.00, 0.064, -0.992, -0.320, 19:29:42.172, 1589045382172
138, 66.13, 0.00, 0.00, 0.00, 0.064, -0.992, -0.320, 19:29:42.172, 1589045382172
139, 395.31, 0.00, 0.00, 0.00, 0.064, -0.992, -0.320, 19:29:42.186, 1589045382186
140, 287.95, 0.00, 0.00, 0.00, 0.064, -0.992, -0.320, 19:29:42.186, 1589045382186
141, -26.60, 0.00, 0.00, 0.00, 0.064, -0.992, -0.320, 19:29:42.201, 1589045382201
142, 69.84, 0.00, 0.00, 0.00, 0.064, -0.992, -0.320, 19:29:42.201, 1589045382201
143, 386.86, 0.00, 0.00, 0.00, 0.064, -0.992, -0.320, 19:29:42.202, 1589045382202
144, 296.88, 0.00, 0.00, 0.00, 0.064, -0.992, -0.320, 19:29:42.202, 1589045382202
145, -18.54, 0.00, 0.00, 0.00, 0.064, -0.992, -0.320, 19:29:42.215, 1589045382215
146, 68.99, 0.00, 0.00, 0.00, 0.064, -0.992, -0.320, 19:29:42.215, 1589045382215
147, 393.88, 0.00, 0.00, 0.00, 0.064, -0.992, -0.320, 19:29:42.231, 1589045382231
148, 276.25, 0.00, 0.00, 0.00, 0.064, -0.992, -0.320, 19:29:42.231, 1589045382231
149, -31.27, 0.00, 0.00, 0.00, 0.064, -0.992, -0.320, 19:29:42.232, 1589045382232
150, 83.65, 0.00, 0.00, 0.00, 0.064, -0.992, -0.320, 19:29:42.232, 1589045382232
151, 389.84, 0.00, 0.00, 0.00, 0.064, -0.992, -0.320, 19:29:42.246, 1589045382246
152, 282.66, 0.00, 0.00, 0.00, 0.064, -0.992, -0.320, 19:29:42.246, 1589045382246
153, -26.89, 0.00, 0.00, 0.00, 0.064, -0.992, -0.320, 19:29:42.261, 1589045382261
154, 102.63, 0.00, 0.00, 0.00, 0.064, -0.992, -0.320, 19:29:42.261, 1589045382261
155, 390.71, 0.00, 0.00, 0.00, 0.064, -0.992, -0.320, 19:29:42.262, 1589045382262
156, 275.49, 0.00, 0.00, 0.00, 0.064, -0.992, -0.320, 19:29:42.262, 1589045382262
157, -12.64, 0.00, 0.00, 0.00, 0.064, -0.992, -0.320, 19:29:42.292, 1589045382292
158, 89.70, 0.00, 0.00, 0.00, 0.064, -0.992, -0.320, 19:29:42.292, 1589045382292
159, 405.67, 0.00, 0.00, 0.00, 0.064, -0.992, -0.320, 19:29:42.293, 1589045382293
160, 293.55, 0.00, 0.00, 0.00, 0.064, -0.992, -0.320, 19:29:42.293, 1589045382293
161, -24.30, 0.00, 0.00, 0.00, 0.064, -0.992, -0.320, 19:29:42.294, 1589045382294
162, 88.13, 0.00, 0.00, 0.00, 0.064, -0.992, -0.320, 19:29:42.294, 1589045382294
163, 410.51, 0.00, 0.00, 0.00, 0.064, -0.992, -0.320, 19:29:42.306, 1589045382306
164, 298.26, 0.00, 0.00, 0.00, 0.064, -0.992, -0.320, 19:29:42.306, 1589045382306
165, -31.22, 0.00, 0.00, 0.00, 0.064, -0.992, -0.320, 19:29:42.338, 1589045382338
166, 86.38, 0.00, 0.00, 0.00, 0.064, -0.992, -0.320, 19:29:42.338, 1589045382338
167, 410.48, 0.00, 0.00, 0.00, 0.064, -0.992, -0.320, 19:29:42.339, 1589045382339
168, 295.20, 0.00, 0.00, 0.00, 0.064, -0.992, -0.320, 19:29:42.339, 1589045382339
169, -13.87, 0.00, 0.00, 0.00, 0.064, -0.992, -0.320, 19:29:42.339, 1589045382339
170, 96.57, 0.00, 0.00, 0.00, 0.064, -0.992, -0.320, 19:29:42.339, 1589045382339
171, 400.44, 0.00, 0.00, 0.00, 0.064, -0.992, -0.320, 19:29:42.340, 1589045382340
172, 282.27, 0.00, 0.00, 0.00, 0.064, -0.992, -0.320, 19:29:42.340, 1589045382340
173, -6.08, 0.00, 0.00, 0.00, 0.064, -0.992, -0.320, 19:29:42.350, 1589045382350
174, 108.62, 0.00, 0.00, 0.00, 0.064, -0.992, -0.320, 19:29:42.350, 1589045382350
175, 400.87, 0.00, 0.00, 0.00, 0.064, -0.992, -0.320, 19:29:42.366, 1589045382366
176, 283.74, 0.00, 0.00, 0.00, 0.064, -0.992, -0.320, 19:29:42.366, 1589045382366
177, -16.41, 0.00, 0.00, 0.00, 0.064, -0.992, -0.320, 19:29:42.382, 1589045382382
178, 106.04, 0.00, 0.00, 0.00, 0.064, -0.992, -0.320, 19:29:42.382, 1589045382382
179, 397.18, 0.00, 0.00, 0.00, 0.064, -0.992, -0.320, 19:29:42.382, 1589045382382
180, 286.85, 0.00, 0.00, 0.00, 0.064, -0.992, -0.320, 19:29:42.382, 1589045382382
181, -6.53, 0.00, 0.00, 0.00, 0.064, -0.992, -0.320, 19:29:42.395, 1589045382395
182, 104.73, 0.00, 0.00, 0.00, 0.064, -0.992, -0.320, 19:29:42.395, 1589045382395
183, 410.35, 0.00, 0.00, 0.00, 0.064, -0.992, -0.320, 19:29:42.411, 1589045382411
184, 301.97, 0.00, 0.00, 0.00, 0.064, -0.992, -0.320, 19:29:42.411, 1589045382411
185, 2.07, 0.00, 0.00, 0.00, 0.064, -0.992, -0.320, 19:29:42.412, 1589045382412
186, 88.14, 0.00, 0.00, 0.00, 0.064, -0.992, -0.320, 19:29:42.412, 1589045382412
187, 418.82, 0.00, 0.00, 0.00, 0.064, -0.992, -0.320, 19:29:42.425, 1589045382425
188, 311.91, 0.00, 0.00, 0.00, 0.064, -0.992, -0.320, 19:29:42.425, 1589045382425
189, -28.97, 0.00, 0.00, 0.00, 0.064, -0.992, -0.320, 19:29:42.441, 1589045382441
190, 87.73, 0.00, 0.00, 0.00, 0.064, -0.992, -0.320, 19:29:42.441, 1589045382441
191, 405.22, 0.00, 0.00, 0.00, 0.064, -0.992, -0.320, 19:29:42.442, 1589045382442
192, 294.76, 0.00, 0.00, 0.00, 0.064, -0.992, -0.320, 19:29:42.442, 1589045382442
193, -19.90, 0.00, 0.00, 0.00, 0.064, -0.992, -0.320, 19:29:42.455, 1589045382455
194, 95.98, 0.00, 0.00, 0.00, 0.064, -0.992, -0.320, 19:29:42.455, 1589045382455
195, 402.46, 0.00, 0.00, 0.00, 0.064, -0.992, -0.320, 19:29:42.471, 1589045382471
196, 288.86, 0.00, 0.00, 0.00, 0.064, -0.992, -0.320, 19:29:42.471, 1589045382471
197, -13.33, 0.00, 0.00, 0.00, 0.064, -0.992, -0.320, 19:29:42.472, 1589045382472
198, 106.67, 0.00, 0.00, 0.00, 0.064, -0.992, -0.320, 19:29:42.472, 1589045382472
199, 393.26, 0.00, 0.00, 0.00, 0.064, -0.992, -0.320, 19:29:42.486, 1589045382486
200, 279.20, 0.00, 0.00, 0.00, 0.064, -0.992, -0.320, 19:29:42.486, 1589045382486
0, -984.69, 0.00, 0.00, 0.00, 0.064, -0.992, -0.320, 19:29:42.487, 1589045382487
1, -886.89, 0.00, 0.00, 0.00, 0.064, -0.992, -0.320, 19:29:42.500, 1589045382500
2, -580.56, 0.00, 0.00, 0.00, 0.064, -0.992, -0.320, 19:29:42.500, 1589045382500
3, -686.95, 0.00, 0.00, 0.00, 0.064, -0.992, -0.320, 19:29:42.516, 1589045382516
4, -995.80, 0.00, 0.00, 0.00, 0.064, -0.992, -0.320, 19:29:42.516, 1589045382516
5, -874.33, 0.00, 0.00, 0.00, 0.064, -0.992, -0.320, 19:29:42.517, 1589045382517
6, -569.42, 0.00, 0.00, 0.00, 0.064, -0.992, -0.320, 19:29:42.517, 1589045382517
7, -682.61, 0.00, 0.00, 0.00, 0.064, -0.992, -0.320, 19:29:42.530, 1589045382530
8, -998.66, 0.00, 0.00, 0.00, 0.064, -0.992, -0.320, 19:29:42.530, 1589045382530
9, -887.84, 0.00, 0.00, 0.00, 0.064, -0.992, -0.320, 19:29:42.546, 1589045382546
10, -561.33, 0.00, 0.00, 0.00, 0.064, -0.992, -0.320, 19:29:42.546, 1589045382546
11, -683.15, 0.00, 0.00, 0.00, 0.064, -0.992, -0.320, 19:29:42.547, 1589045382547
12, -1007.68, 0.00, 0.00, 0.00, 0.064, -0.992, -0.320, 19:29:42.547, 1589045382547
13, -875.26, 0.00, 0.00, 0.00, 0.064, -0.992, -0.320, 19:29:42.561, 1589045382561
14, -568.55, 0.00, 0.00, 0.00, 0.064, -0.992, -0.320, 19:29:42.561, 1589045382561
15, -681.84, 0.00, 0.00, 0.00, 0.064, -0.992, -0.320, 19:29:42.576, 1589045382576
16, -988.73, 0.00, 0.00, 0.00, 0.064, -0.992, -0.320, 19:29:42.576, 1589045382576
17, -882.86, 0.00, 0.00, 0.00, 0.064, -0.992, -0.320, 19:29:42.577, 1589045382577
18, -577.17, 0.00, 0.00, 0.00, 0.064, -0.992, -0.320, 19:29:42.577, 1589045382577
19, -696.54, 0.00, 0.00, 0.00, 0.064, -0.992, -0.320, 19:29:42.590, 1589045382590
20, -979.95, 0.00, 0.00, 0.00, 0.064, -0.992, -0.320, 19:29:42.590, 1589045382590
21, -876.13, 0.00, 0.00, 0.00, 0.064, -0.992, -0.320, 19:29:42.606, 1589045382606
22, -577.22, 0.00, 0.00, 0.00, 0.064, -0.992, -0.320, 19:29:42.606, 1589045382606
23, -687.17, 0.00, 0.00, 0.00, 0.064, -0.992, -0.320, 19:29:42.607, 1589045382607
24, -1005.04, 0.00, 0.00, 0.00, 0.064, -0.992, -0.320, 19:29:42.607, 1589045382607
25, -883.07, 0.00, 0.00, 0.00, 0.064, -0.992, -0.320, 19:29:42.621, 1589045382621
26, -570.74, 0.00, 0.00, 0.00, 0.064, -0.992, -0.320, 19:29:42.621, 1589045382621
27, -706.46, 0.00, 0.00, 0.00, 0.064, -0.992, -0.320, 19:29:42.636, 1589045382636
28, -1007.80, 0.00, 0.00, 0.00, 0.064, -0.992, -0.320, 19:29:42.636, 1589045382636
29, -867.26, 0.00, 0.00, 0.00, 0.064, -0.992, -0.320, 19:29:42.637, 1589045382637
30, -570.40, 0.00, 0.00, 0.00, 0.064, -0.992, -0.320, 19:29:42.637, 1589045382637
31, -688.99, 0.00, 0.00, 0.00, 0.064, -0.992, -0.320, 19:29:42.651, 1589045382651
32, -997.11, 0.00, 0.00, 0.00, 0.064, -0.992, -0.320, 19:29:42.651, 1589045382651
33, -899.05, 0.00, 0.00, 0.00, 0.064, -0.992, -0.320, 19:29:42.666, 1589045382666
34, -575.41, 0.00, 0.00, 0.00, 0.064, -0.992, -0.320, 19:29:42.666, 1589045382666
35, -690.88, 0.00, 0.00, 0.00, 0.064, -0.992, -0.320, 19:29:42.667, 1589045382667
36, -1011.64, 0.00, 0.00, 0.00, 0.064, -0.992, -0.320, 19:29:42.667, 1589045382667
37, -890.28, 0.00, 0.00, 0.00, 0.064, -0.992, -0.320, 19:29:42.681, 1589045382681
38, -574.43, 0.00, 0.00, 0.00, 0.064, -0.992, -0.320, 19:29:42.681, 1589045382681
39, -679.37, 0.00, 0.00, 0.00, 0.064, -0.992, -0.320, 19:29:42.696, 1589045382696
40, -1004.73, 0.00, 0.00, 0.00, 0.064, -0.992, -0.320, 19:29:42.696, 1589045382696
41, -899.17, 0.00, 0.00, 0.00, 0.064, -0.992, -0.320, 19:29:42.697, 1589045382697
42, -580.72, 0.00, 0.00, 0.00, 0.064, -0.992, -0.320, 19:29:42.697, 1589045382697
43, -682.51, 0.00, 0.00, 0.00, 0.064, -0.992, -0.320, 19:29:42.711, 1589045382711
44, -1007.18, 0.00, 0.00, 0.00, 0.064, -0.992, -0.320, 19:29:42.711, 1589045382711
45, -881.95, 0.00, 0.00, 0.00, 0.064, -0.992, -0.320, 19:29:42.726, 1589045382726
46, -579.36, 0.00, 0.00, 0.00, 0.064, -0.992, -0.320, 19:29:42.726, 1589045382726
47, -694.35, 0.00, 0.00, 0.00, 0.064, -0.992, -0.320, 19:29:42.727, 1589045382727
48, -1007.56, 0.00, 0.00, 0.00, 0.064, -0.992, -0.320, 19:29:42.727, 1589045382727
49, -890.22, 0.00, 0.00, 0.00, 0.064, -0.992, -0.320, 19:29:42.741, 1589045382741
50, -570.83, 0.00, 0.00, 0.00, 0.064, -0.992, -0.320, 19:29:42.741, 1589045382741
51, -709.37, 0.00, 0.00, 0.00, 0.064, -0.992, -0.320, 19:29:42.756, 1589045382756
52, -1011.41, 0.00, 0.00, 0.00, 0.064, -0.992, -0.320, 19:29:42.756, 1589045382756
53, -869.19, 0.00, 0.00, 0.00, 0.064, -0.992, -0.320, 19:29:42.757, 1589045382757
54, -581.06, 0.00, 0.00, 0.00, 0.064, -0.992, -0.320, 19:29:42.757, 1589045382757
55, -693.68, 0.00, 0.00, 0.00, 0.064, -0.992, -0.320, 19:29:42.770, 1589045382770
56, -1014.89, 0.00, 0.00, 0.00, 0.064, -0.992, -0.320, 19:29:42.770, 1589045382770
57, -903.54, 0.00, 0.00, 0.00, 0.064, -0.992, -0.320, 19:29:42.786, 1589045382786
58, -571.11, 0.00, 0.00, 0.00, 0.064, -0.992, -0.320, 19:29:42.786, 1589045382786
59, -680.20, 0.00, 0.00, 0.00, 0.064, -0.992, -0.320, 19:29:42.787, 1589045382787
60, -994.17, 0.00, 0.00, 0.00, 0.064, -0.992, -0.320, 19:29:42.787, 1589045382787
61, -876.76, 0.00, 0.00, 0.00, 0.064, -0.992, -0.320, 19:29:42.801, 1589045382801
62, -576.93, 0.00, 0.00, 0.00, 0.064, -0.992, -0.320, 19:29:42.801, 1589045382801
63, -696.37, 0.00, 0.00, 0.00, 0.064, -0.992, -0.320, 19:29:42.816, 1589045382816
64, -1005.38, 0.00, 0.00, 0.00, 0.064, -0.992, -0.320, 19:29:42.816, 1589045382816
65, -887.18, 0.00, 0.00, 0.00, 0.064, -0.992, -0.320, 19:29:42.817, 1589045382817
66, -578.21, 0.00, 0.00, 0.00, 0.064, -0.992, -0.320, 19:29:42.817, 1589045382817
67, -701.45, 0.00, 0.00, 0.00, 0.064, -0.992, -0.320, 19:29:42.847, 1589045382847
68, -998.65, 0.00, 0.00, 0.00, 0.064, -0.992, -0.320, 19:29:42.847, 1589045382847
69, -872.39, 0.00, 0.00, 0.00, 0.064, -0.992, -0.320, 19:29:42.848, 1589045382848
70, -571.30, 0.00, 0.00, 0.00, 0.064, -0.992, -0.320, 19:29:42.848, 1589045382848
71, -705.08, 0.00, 0.00, 0.00, 0.064, -0.992, -0.320, 19:29:42.849, 1589045382849
72, -1004.91, 0.00, 0.00, 0.00, 0.064, -0.992, -0.320, 19:29:42.849, 1589045382849
73, -878.25, 0.00, 0.00, 0.00, 0.064, -0.992, -0.320, 19:29:42.861, 1589045382861
74, -569.21, 0.00, 0.00, 0.00, 0.064, -0.992, -0.320, 19:29:42.861, 1589045382861
75, -683.96, 0.00, 0.00, 0.00, 0.064, -0.992, -0.320, 19:29:42.877, 1589045382877
76, -1008.55, 0.00, 0.00, 0.00, 0.064, -0.992, -0.320, 19:29:42.877, 1589045382877
77, -878.34, 0.00, 0.00, 0.00, 0.064, -0.992, -0.320, 19:29:42.877, 1589045382877
78, -559.15, 0.00, 0.00, 0.00, 0.064, -0.992, -0.320, 19:29:42.877, 1589045382877
79, -688.79, 0.00, 0.00, 0.00, 0.064, -0.992, -0.320, 19:29:42.890, 1589045382890
80, -1003.53, 0.00, 0.00, 0.00, 0.064, -0.992, -0.320, 19:29:42.890, 1589045382890
81, -890.00, 0.00, 0.00, 0.00, 0.064, -0.992, -0.320, 19:29:42.906, 1589045382906
82, -565.14, 0.00, 0.00, 0.00, 0.064, -0.992, -0.320, 19:29:42.906, 1589045382906
83, -687.76, 0.00, 0.00, 0.00, 0.064, -0.992, -0.320, 19:29:42.907, 1589045382907
84, -1006.68, 0.00, 0.00, 0.00, 0.064, -0.992, -0.320, 19:29:42.907, 1589045382907
85, -888.84, 0.00, 0.00, 0.00, 0.064, -0.992, -0.320, 19:29:42.921, 1589045382921
86, -566.67, 0.00, 0.00, 0.00, 0.064, -0.992, -0.320, 19:29:42.921, 1589045382921
87, -698.98, 0.00, 0.00, 0.00, 0.064, -0.992, -0.320, 19:29:42.936, 1589045382936
88, -1000.76, 0.00, 0.00, 0.00, 0.064, -0.992, -0.320, 19:29:42.936, 1589045382936
89, -884.53, 0.00, 0.00, 0.00, 0.064, -0.992, -0.320, 19:29:42.937, 1589045382937
90, -569.76, 0.00, 0.00, 0.00, 0.064, -0.992, -0.320, 19:29:42.937, 1589045382937
91, -688.73, 0.00, 0.00, 0.00, 0.064, -0.992, -0.320, 19:29:42.950, 1589045382950
92, -1005.69, 0.00, 0.00, 0.00, 0.064, -0.992, -0.320, 19:29:42.950, 1589045382950
93, -873.62, 0.00, 0.00, 0.00, 0.064, -0.992, -0.320, 19:29:42.966, 1589045382966
94, -571.31, 0.00, 0.00, 0.00, 0.064, -0.992, -0.320, 19:29:42.966, 1589045382966
95, -697.98, 0.00, 0.00, 0.00, 0.064, -0.992, -0.320, 19:29:42.967, 1589045382967
96, -999.85, 0.00, 0.00, 0.00, 0.064, -0.992, -0.320, 19:29:42.967, 1589045382967
97, -879.18, 0.00, 0.00, 0.00, 0.064, -0.992, -0.320, 19:29:42.981, 1589045382981
98, -555.80, 0.00, 0.00, 0.00, 0.064, -0.992, -0.320, 19:29:42.981, 1589045382981
99, -698.21, 0.00, 0.00, 0.00, 0.064, -0.992, -0.320, 19:29:42.996, 1589045382996
100, -1009.23, 0.00, 0.00, 0.00, 0.064, -0.992, -0.320, 19:29:42.996, 1589045382996
101, -870.85, 0.00, 0.00, 0.00, 0.064, -0.992, -0.320, 19:29:42.997, 1589045382997
102, -569.88, 0.00, 0.00, 0.00, 0.064, -0.992, -0.320, 19:29:42.997, 1589045382997
103, -700.29, 0.00, 0.00, 0.00, 0.064, -0.992, -0.320, 19:29:43.010, 1589045383010
104, -1011.38, 0.00, 0.00, 0.00, 0.064, -0.992, -0.320, 19:29:43.010, 1589045383010
105, -876.18, 0.00, 0.00, 0.00, 0.064, -0.992, -0.320, 19:29:43.026, 1589045383026
106, -563.66, 0.00, 0.00, 0.00, 0.064, -0.992, -0.320, 19:29:43.026, 1589045383026
107, -694.97, 0.00, 0.00, 0.00, 0.064, -0.992, -0.320, 19:29:43.027, 1589045383027
108, -1003.55, 0.00, 0.00, 0.00, 0.064, -0.992, -0.320, 19:29:43.027, 1589045383027
109, -874.48, 0.00, 0.00, 0.00, 0.064, -0.992, -0.320, 19:29:43.041, 1589045383041
110, -567.44, 0.00, 0.00, 0.00, 0.064, -0.992, -0.320, 19:29:43.041, 1589045383041
111, -676.08, 0.00, 0.00, 0.00, 0.064, -0.992, -0.320, 19:29:43.056, 1589045383056
112, -1002.18, 0.00, 0.00, 0.00, 0.064, -0.992, -0.320, 19:29:43.056, 1589045383056
113, -880.51, 0.00, 0.00, 0.00, 0.064, -0.992, -0.320, 19:29:43.057, 1589045383057
114, -569.90, 0.00, 0.00, 0.00, 0.064, -0.992, -0.320, 19:29:43.057, 1589045383057
115, -702.31, 0.00, 0.00, 0.00, 0.064, -0.992, -0.320, 19:29:43.070, 1589045383070
116, -1008.58, 0.00, 0.00, 0.00, 0.064, -0.992, -0.320, 19:29:43.070, 1589045383070
117, -873.59, 0.00, 0.00, 0.00, 0.064, -0.992, -0.320, 19:29:43.086, 1589045383086
118, -580.77, 0.00, 0.00, 0.00, 0.064, -0.992, -0.320, 19:29:43.086, 1589045383086
119, -700.14, 0.00, 0.00, 0.00, 0.064, -0.992, -0.320, 19:29:43.087, 1589045383087
120, -997.14, 0.00, 0.00, 0.00, 0.064, -0.992, -0.320, 19:29:43.087, 1589045383087
121, -854.59, 0.00, 0.00, 0.00, 0.064, -0.992, -0.320, 19:29:43.101, 1589045383101
122, -568.70, 0.00, 0.00, 0.00, 0.064, -0.992, -0.320, 19:29:43.101, 1589045383101
123, -699.65, 0.00, 0.00, 0.00, 0.064, -0.992, -0.320, 19:29:43.116, 1589045383116
124, -998.36, 0.00, 0.00, 0.00, 0.064, -0.992, -0.320, 19:29:43.116, 1589045383116
125, -869.82, 0.00, 0.00, 0.00, 0.064, -0.992, -0.320, 19:29:43.117, 1589045383117
126, -568.06, 0.00, 0.00, 0.00, 0.064, -0.992, -0.320, 19:29:43.117, 1589045383117
127, -704.85, 0.00, 0.00, 0.00, 0.064, -0.992, -0.320, 19:29:43.131, 1589045383131
128, -1006.35, 0.00, 0.00, 0.00, 0.064, -0.992, -0.320, 19:29:43.131, 1589045383131
129, -875.16, 0.00, 0.00, 0.00, 0.064, -0.992, -0.320, 19:29:43.146, 1589045383146
130, -558.36, 0.00, 0.00, 0.00, 0.064, -0.992, -0.320, 19:29:43.146, 1589045383146
131, -677.72, 0.00, 0.00, 0.00, 0.064, -0.992, -0.320, 19:29:43.147, 1589045383147
132, -1015.42, 0.00, 0.00, 0.00, 0.064, -0.992, -0.320, 19:29:43.147, 1589045383147
133, -863.62, 0.00, 0.00, 0.00, 0.064, -0.992, -0.320, 19:29:43.160, 1589045383160
134, -542.61, 0.00, 0.00, 0.00, 0.064, -0.992, -0.320, 19:29:43.160, 1589045383160
135, -678.31, 0.00, 0.00, 0.00, 0.064, -0.992, -0.320, 19:29:43.176, 1589045383176
136, -997.02, 0.00, 0.00, 0.00, 0.064, -0.992, -0.320, 19:29:43.176, 1589045383176
137, -874.44, 0.00, 0.00, 0.00, 0.064, -0.992, -0.320, 19:29:43.177, 1589045383177
138, -556.96, 0.00, 0.00, 0.00, 0.064, -0.992, -0.320, 19:29:43.177, 1589045383177
139, -678.66, 0.00, 0.00, 0.00, 0.064, -0.992, -0.320, 19:29:43.191, 1589045383191
140, -985.11, 0.00, 0.00, 0.00, 0.064, -0.992, -0.320, 19:29:43.191, 1589045383191
141, -875.51, 0.00, 0.00, 0.00, 0.064, -0.992, -0.320, 19:29:43.207, 1589045383207
142, -554.79, 0.00, 0.00, 0.00, 0.064, -0.992, -0.320, 19:29:43.207, 1589045383207
143, -665.94, 0.00, 0.00, 0.00, 0.064, -0.992, -0.320, 19:29:43.208, 1589045383208
144, -993.09, 0.00, 0.00, 0.00, 0.064, -0.992, -0.320, 19:29:43.208, 1589045383208
145, -847.88, 0.00, 0.00, 0.00, 0.064, -0.992, -0.320, 19:29:43.221, 1589045383221
146, -540.73, 0.00, 0.00, 0.00, 0.064, -0.992, -0.320, 19:29:43.221, 1589045383221
147, -688.94, 0.00, 0.00, 0.00, 0.064, -0.992, -0.320, 19:29:43.236, 1589045383236
148, -995.62, 0.00, 0.00, 0.00, 0.064, -0.992, -0.320, 19:29:43.236, 1589045383236
149, -864.85, 0.00, 0.00, 0.00, 0.064, -0.992, -0.320, 19:29:43.237, 1589045383237
150, -554.84, 0.00, 0.00, 0.00, 0.064, -0.992, -0.320, 19:29:43.237, 1589045383237
151, -696.40, 0.00, 0.00, 0.00, 0.064, -0.992, -0.320, 19:29:43.251, 1589045383251
152, -998.00, 0.00, 0.00, 0.00, 0.064, -0.992, -0.320, 19:29:43.251, 1589045383251
153, -856.31, 0.00, 0.00, 0.00, 0.064, -0.992, -0.320, 19:29:43.267, 1589045383267
154, -553.38, 0.00, 0.00, 0.00, 0.064, -0.992, -0.320, 19:29:43.267, 1589045383267
155, -694.29, 0.00, 0.00, 0.00, 0.064, -0.992, -0.320, 19:29:43.267, 1589045383267
156, -994.56, 0.00, 0.00, 0.00, 0.064, -0.992, -0.320, 19:29:43.267, 1589045383267
157, -852.63, 0.00, 0.00, 0.00, 0.064, -0.992, -0.320, 19:29:43.281, 1589045383281
158, -538.43, 0.00, 0.00, 0.00, 0.064, -0.992, -0.320, 19:29:43.281, 1589045383281
159, -694.88, 0.00, 0.00, 0.00, 0.064, -0.992, -0.320, 19:29:43.296, 1589045383296
160, -994.49, 0.00, 0.00, 0.00, 0.064, -0.992, -0.320, 19:29:43.296, 1589045383296
161, -858.21, 0.00, 0.00, 0.00, 0.064, -0.992, -0.320, 19:29:43.297, 1589045383297
162, -547.46, 0.00, 0.00, 0.00, 0.064, -0.992, -0.320, 19:29:43.297, 1589045383297
163, -679.95, 0.00, 0.00, 0.00, 0.064, -0.992, -0.320, 19:29:43.310, 1589045383310
164, -989.20, 0.00, 0.00, 0.00, 0.064, -0.992, -0.320, 19:29:43.310, 1589045383310
165, -859.13, 0.00, 0.00, 0.00, 0.064, -0.992, -0.320, 19:29:43.327, 1589045383327
166, -545.87, 0.00, 0.00, 0.00, 0.064, -0.992, -0.320, 19:29:43.327, 1589045383327
167, -681.32, 0.00, 0.00, 0.00, 0.064, -0.992, -0.320, 19:29:43.327, 1589045383327
168, -987.75, 0.00, 0.00, 0.00, 0.064, -0.992, -0.320, 19:29:43.327, 1589045383327
169, -869.19, 0.00, 0.00, 0.00, 0.064, -0.992, -0.320, 19:29:43.341, 1589045383341
170, -552.34, 0.00, 0.00, 0.00, 0.064, -0.992, -0.320, 19:29:43.341, 1589045383341
171, -684.79, 0.00, 0.00, 0.00, 0.064, -0.992, -0.320, 19:29:43.356, 1589045383356
172, -982.70, 0.00, 0.00, 0.00, 0.064, -0.992, -0.320, 19:29:43.356, 1589045383356
173, -850.27, 0.00, 0.00, 0.00, 0.064, -0.992, -0.320, 19:29:43.357, 1589045383357
174, -551.55, 0.00, 0.00, 0.00, 0.064, -0.992, -0.320, 19:29:43.357, 1589045383357
175, -693.69, 0.00, 0.00, 0.00, 0.064, -0.992, -0.320, 19:29:43.370, 1589045383370
176, -1001.49, 0.00, 0.00, 0.00, 0.064, -0.992, -0.320, 19:29:43.370, 1589045383370
177, -856.58, 0.00, 0.00, 0.00, 0.064, -0.992, -0.320, 19:29:43.403, 1589045383403
178, -554.23, 0.00, 0.00, 0.00, 0.064, -0.992, -0.320, 19:29:43.403, 1589045383403
179, -677.52, 0.00, 0.00, 0.00, 0.064, -0.992, -0.320, 19:29:43.403, 1589045383403
180, -1000.95, 0.00, 0.00, 0.00, 0.064, -0.992, -0.320, 19:29:43.403, 1589045383403
181, -852.59, 0.00, 0.00, 0.00, 0.064, -0.992, -0.320, 19:29:43.404, 1589045383404
182, -532.71, 0.00, 0.00, 0.00, 0.064, -0.992, -0.320, 19:29:43.404, 1589045383404
183, -685.86, 0.00, 0.00, 0.00, 0.064, -0.992, -0.320, 19:29:43.405, 1589045383405
184, -1007.96, 0.00, 0.00, 0.00, 0.064, -0.992, -0.320, 19:29:43.405, 1589045383405
185, -850.39, 0.00, 0.00, 0.00, 0.064, -0.992, -0.320, 19:29:43.417, 1589045383417
186, -524.54, 0.00, 0.00, 0.00, 0.064, -0.992, -0.320, 19:29:43.417, 1589045383417
187, -675.24, 0.00, 0.00, 0.00, 0.064, -0.992, -0.320, 19:29:43.430, 1589045383430
188, -998.99, 0.00, 0.00, 0.00, 0.064, -0.992, -0.320, 19:29:43.430, 1589045383430
189, -851.62, 0.00, 0.00, 0.00, 0.064, -0.992, -0.320, 19:29:43.446, 1589045383446
190, -550.39, 0.00, 0.00, 0.00, 0.064, -0.992, -0.320, 19:29:43.446, 1589045383446
191, -688.95, 0.00, 0.00, 0.00, 0.064, -0.992, -0.320, 19:29:43.447, 1589045383447
192, -983.84, 0.00, 0.00, 0.00, 0.064, -0.992, -0.320, 19:29:43.447, 1589045383447
193, -859.69, 0.00, 0.00, 0.00, 0.064, -0.992, -0.320, 19:29:43.461, 1589045383461
194, -555.09, 0.00, 0.00, 0.00, 0.064, -0.992, -0.320, 19:29:43.461, 1589045383461
195, -682.67, 0.00, 0.00, 0.00, 0.064, -0.992, -0.320, 19:29:43.476, 1589045383476
196, -988.37, 0.00, 0.00, 0.00, 0.064, -0.992, -0.320, 19:29:43.476, 1589045383476
197, -853.97, 0.00, 0.00, 0.00, 0.064, -0.992, -0.320, 19:29:43.477, 1589045383477
198, -552.55, 0.00, 0.00, 0.00, 0.064, -0.992, -0.320, 19:29:43.477, 1589045383477
199, -693.37, 0.00, 0.00, 0.00, 0.064, -0.992, -0.320, 19:29:43.491, 1589045383491
200, -988.01, 0.00, 0.00, 0.00, 0.064, -0.992, -0.320, 19:29:43.491, 1589045383491
0, -845.94, 0.00, 0.00, 0.00, 0.064, -0.992, -0.320, 19:29:43.492, 1589045383492
1, -544.95, 0.00, 0.00, 0.00, 0.064, -0.992, -0.320, 19:29:43.506, 1589045383506
2, -688.06, 0.00, 0.00, 0.00, 0.064, -0.992, -0.320, 19:29:43.506, 1589045383506
3, -1003.67, 0.00, 0.00, 0.00, 0.064, -0.992, -0.320, 19:29:43.521, 1589045383521
4, -837.84, 0.00, 0.00, 0.00, 0.064, -0.992, -0.320, 19:29:43.521, 1589045383521
5, -541.63, 0.00, 0.00, 0.00, 0.064, -0.992, -0.320, 19:29:43.523, 1589045383523
6, -694.86, 0.00, 0.00, 0.00, 0.064, -0.992, -0.320, 19:29:43.523, 1589045383523
7, -995.68, 0.00, 0.00, 0.00, 0.064, -0.992, -0.320, 19:29:43.552, 1589045383552
8, -856.45, 0.00, 0.00, 0.00, 0.064, -0.992, -0.320, 19:29:43.552, 1589045383552
9, -552.65, 0.00, 0.00, 0.00, 0.064, -0.992, -0.320, 19:29:43.552, 1589045383552
10, -685.77, 0.00, 0.00, 0.00, 0.064, -0.992, -0.320, 19:29:43.552, 1589045383552
11, -1008.08, 0.00, 0.00, 0.00, 0.064, -0.992, -0.320, 19:29:43.553, 1589045383553
12, -851.03, 0.00, 0.00, 0.00, 0.064, -0.992, -0.320, 19:29:43.553, 1589045383553
13, -549.63, 0.00, 0.00, 0.00, 0.064, -0.992, -0.320, 19:29:43.565, 1589045383565
14, -690.16, 0.00, 0.00, 0.00, 0.064, -0.992, -0.320, 19:29:43.565, 1589045383565
15, -996.74, 0.00, 0.00, 0.00, 0.064, -0.992, -0.320, 19:29:43.582, 1589045383582
16, -869.81, 0.00, 0.00, 0.00, 0.064, -0.992, -0.320, 19:29:43.582, 1589045383582
17, -543.10, 0.00, 0.00, 0.00, 0.064, -0.992, -0.320, 19:29:43.583, 1589045383583
18, -697.20, 0.00, 0.00, 0.00, 0.064, -0.992, -0.320, 19:29:43.583, 1589045383583
19, -999.84, 0.00, 0.00, 0.00, 0.064, -0.992, -0.320, 19:29:43.596, 1589045383596
20, -844.45, 0.00, 0.00, 0.00, 0.064, -0.992, -0.320, 19:29:43.596, 1589045383596
21, -570.29, 0.00, 0.00, 0.00, 0.064, -0.992, -0.320, 19:29:43.611, 1589045383611
22, -698.22, 0.00, 0.00, 0.00, 0.064, -0.992, -0.320, 19:29:43.611, 1589045383611
23, -996.18, 0.00, 0.00, 0.00, 0.064, -0.992, -0.320, 19:29:43.612, 1589045383612
24, -859.07, 0.00, 0.00, 0.00, 0.064, -0.992, -0.320, 19:29:43.612, 1589045383612
25, -549.21, 0.00, 0.00, 0.00, 0.064, -0.992, -0.320, 19:29:43.626, 1589045383626
26, -711.38, 0.00, 0.00, 0.00, 0.064, -0.992, -0.320, 19:29:43.626, 1589045383626
27, -1002.50, 0.00, 0.00, 0.00, 0.064, -0.992, -0.320, 19:29:43.641, 1589045383641
28, -847.65, 0.00, 0.00, 0.00, 0.064, -0.992, -0.320, 19:29:43.641, 1589045383641
29, -552.92, 0.00, 0.00, 0.00, 0.064, -0.992, -0.320, 19:29:43.656, 1589045383656
30, -701.92, 0.00, 0.00, 0.00, 0.064, -0.992, -0.320, 19:29:43.656, 1589045383656
31, -1014.11, 0.00, 0.00, 0.00, 0.064, -0.992, -0.320, 19:29:43.657, 1589045383657
32, -861.40, 0.00, 0.00, 0.00, 0.064, -0.992, -0.320, 19:29:43.657, 1589045383657
33, -549.23, 0.00, 0.00, 0.00, 0.064, -0.992, -0.320, 19:29:43.671, 1589045383671
34, -707.39, 0.00, 0.00, 0.00, 0.064, -0.992, -0.320, 19:29:43.671, 1589045383671
35, -1012.47, 0.00, 0.00, 0.00, 0.064, -0.992, -0.320, 19:29:43.672, 1589045383672
36, -867.69, 0.00, 0.00, 0.00, 0.064, -0.992, -0.320, 19:29:43.672, 1589045383672
37, -551.87, 0.00, 0.00, 0.00, 0.064, -0.992, -0.320, 19:29:43.685, 1589045383685
38, -701.36, 0.00, 0.00, 0.00, 0.064, -0.992, -0.320, 19:29:43.685, 1589045383685
39, -1012.81, 0.00, 0.00, 0.00, 0.064, -0.992, -0.320, 19:29:43.701, 1589045383701
40, -850.59, 0.00, 0.00, 0.00, 0.064, -0.992, -0.320, 19:29:43.701, 1589045383701
41, -560.21, 0.00, 0.00, 0.00, 0.064, -0.992, -0.320, 19:29:43.702, 1589045383702
42, -699.71, 0.00, 0.00, 0.00, 0.064, -0.992, -0.320, 19:29:43.702, 1589045383702
43, -1010.37, 0.00, 0.00, 0.00, 0.064, -0.992, -0.320, 19:29:43.715, 1589045383715
44, -850.41, 0.00, 0.00, 0.00, 0.064, -0.992, -0.320, 19:29:43.715, 1589045383715
45, -564.53, 0.00, 0.00, 0.00, 0.064, -0.992, -0.320, 19:29:43.731, 1589045383731
46, -699.33, 0.00, 0.00, 0.00, 0.064, -0.992, -0.320, 19:29:43.731, 1589045383731
47, -1011.57, 0.00, 0.00, 0.00, 0.064, -0.992, -0.320, 19:29:43.732, 1589045383732
48, -858.96, 0.00, 0.00, 0.00, 0.064, -0.992, -0.320, 19:29:43.732, 1589045383732
49, -553.87, 0.00, 0.00, 0.00, 0.064, -0.992, -0.320, 19:29:43.745, 1589045383745
50, -709.06, 0.00, 0.00, 0.00, 0.064, -0.992, -0.320, 19:29:43.745, 1589045383745
51, -1023.57, 0.00, 0.00, 0.00, 0.064, -0.992, -0.320, 19:29:43.761, 1589045383761
52, -849.48, 0.00, 0.00, 0.00, 0.064, -0.992, -0.320, 19:29:43.761, 1589045383761
53, -550.02, 0.00, 0.00, 0.00, 0.064, -0.992, -0.320, 19:29:43.762, 1589045383762
54, -711.39, 0.00, 0.00, 0.00, 0.064, -0.992, -0.320, 19:29:43.762, 1589045383762
55, -1017.66, 0.00, 0.00, 0.00, 0.064, -0.992, -0.320, 19:29:43.776, 1589045383776
56, -859.02, 0.00, 0.00, 0.00, 0.064, -0.992, -0.320, 19:29:43.776, 1589045383776
57, -552.94, 0.00, 0.00, 0.00, 0.064, -0.992, -0.320, 19:29:43.791, 1589045383791
58, -706.74, 0.00, 0.00, 0.00, 0.064, -0.992, -0.320, 19:29:43.791, 1589045383791
59, -1003.85, 0.00, 0.00, 0.00, 0.064, -0.992, -0.320, 19:29:43.792, 1589045383792
60, -862.08, 0.00, 0.00, 0.00, 0.064, -0.992, -0.320, 19:29:43.792, 1589045383792
61, -554.60, 0.00, 0.00, 0.00, 0.064, -0.992, -0.320, 19:29:43.805, 1589045383805
62, -706.67, 0.00, 0.00, 0.00, 0.064, -0.992, -0.320, 19:29:43.805, 1589045383805
63, -997.32, 0.00, 0.00, 0.00, 0.064, -0.992, -0.320, 19:29:43.821, 1589045383821
64, -862.35, 0.00, 0.00, 0.00, 0.064, -0.992, -0.320, 19:29:43.821, 1589045383821
65, -562.84, 0.00, 0.00, 0.00, 0.064, -0.992, -0.320, 19:29:43.822, 1589045383822
66, -694.01, 0.00, 0.00, 0.00, 0.064, -0.992, -0.320, 19:29:43.822, 1589045383822
67, -1011.50, 0.00, 0.00, 0.00, 0.064, -0.992, -0.320, 19:29:43.836, 1589045383836
68, -848.77, 0.00, 0.00, 0.00, 0.064, -0.992, -0.320, 19:29:43.836, 1589045383836
69, -543.89, 0.00, 0.00, 0.00, 0.064, -0.992, -0.320, 19:29:43.851, 1589045383851
70, -715.58, 0.00, 0.00, 0.00, 0.064, -0.992, -0.320, 19:29:43.851, 1589045383851
71, -1011.96, 0.00, 0.00, 0.00, 0.064, -0.992, -0.320, 19:29:43.852, 1589045383852
72, -858.48, 0.00, 0.00, 0.00, 0.064, -0.992, -0.320, 19:29:43.852, 1589045383852
73, -551.10, 0.00, 0.00, 0.00, 0.064, -0.992, -0.320, 19:29:43.866, 1589045383866
74, -714.90, 0.00, 0.00, 0.00, 0.064, -0.992, -0.320, 19:29:43.866, 1589045383866
75, -1021.11, 0.00, 0.00, 0.00, 0.064, -0.992, -0.320, 19:29:43.898, 1589045383898
76, -842.00, 0.00, 0.00, 0.00, 0.064, -0.992, -0.320, 19:29:43.898, 1589045383898
77, -551.23, 0.00, 0.00, 0.00, 0.064, -0.992, -0.320, 19:29:43.899, 1589045383899
78, -710.88, 0.00, 0.00, 0.00, 0.064, -0.992, -0.320, 19:29:43.899, 1589045383899
79, -1015.95, 0.00, 0.00, 0.00, 0.064, -0.992, -0.320, 19:29:43.900, 1589045383900
80, -861.82, 0.00, 0.00, 0.00, 0.064, -0.992, -0.320, 19:29:43.900, 1589045383900
81, -563.91, 0.00, 0.00, 0.00, 0.064, -0.992, -0.320, 19:29:43.900, 1589045383900
82, -714.50, 0.00, 0.00, 0.00, 0.064, -0.992, -0.320, 19:29:43.900, 1589045383900
83, -1010.71, 0.00, 0.00, 0.00, 0.064, -0.992, -0.320, 19:29:43.910, 1589045383910
84, -858.22, 0.00, 0.00, 0.00, 0.064, -0.992, -0.320, 19:29:43.910, 1589045383910
85, -552.90, 0.00, 0.00, 0.00, 0.064, -0.992, -0.320, 19:29:43.926, 1589045383926
86, -701.61, 0.00, 0.00, 0.00, 0.064, -0.992, -0.320, 19:29:43.926, 1589045383926
87, -1010.45, 0.00, 0.00, 0.00, 0.064, -0.992, -0.320, 19:29:43.958, 1589045383958
88, -849.13, 0.00, 0.00, 0.00, 0.064, -0.992, -0.320, 19:29:43.958, 1589045383958
89, -542.52, 0.00, 0.00, 0.00, 0.064, -0.992, -0.320, 19:29:43.958, 1589045383958
90, -717.77, 0.00, 0.00, 0.00, 0.064, -0.992, -0.320, 19:29:43.958, 1589045383958
91, -1017.62, 0.00, 0.00, 0.00, 0.064, -0.992, -0.320, 19:29:43.959, 1589045383959
92, -847.81, 0.00, 0.00, 0.00, 0.064, -0.992, -0.320, 19:29:43.959, 1589045383959
93, -538.12, 0.00, 0.00, 0.00, 0.064, -0.992, -0.320, 19:29:43.961, 1589045383961
94, -722.12, 0.00, 0.00, 0.00, 0.064, -0.992, -0.320, 19:29:43.961, 1589045383961
95, -1017.56, 0.00, 0.00, 0.00, 0.064, -0.992, -0.320, 19:29:43.970, 1589045383970
96, -838.08, 0.00, 0.00, 0.00, 0.064, -0.992, -0.320, 19:29:43.970, 1589045383970
97, -549.22, 0.00, 0.00, 0.00, 0.064, -0.992, -0.320, 19:29:43.986, 1589045383986
98, -718.91, 0.00, 0.00, 0.00, 0.064, -0.992, -0.320, 19:29:43.986, 1589045383986
99, -1002.36, 0.00, 0.00, 0.00, 0.064, -0.992, -0.320, 19:29:44.001, 1589045384001
100, -861.32, 0.00, 0.00, 0.00, 0.064, -0.992, -0.320, 19:29:44.001, 1589045384001
101, -560.47, 0.00, 0.00, 0.00, 0.064, -0.992, -0.320, 19:29:44.002, 1589045384002
102, -704.10, 0.00, 0.00, 0.00, 0.064, -0.992, -0.320, 19:29:44.002, 1589045384002
103, -1019.45, 0.00, 0.00, 0.00, 0.064, -0.992, -0.320, 19:29:44.016, 1589045384016
104, -856.06, 0.00, 0.00, 0.00, 0.064, -0.992, -0.320, 19:29:44.016, 1589045384016
105, -557.60, 0.00, 0.00, 0.00, 0.064, -0.992, -0.320, 19:29:44.031, 1589045384031
106, -710.54, 0.00, 0.00, 0.00, 0.064, -0.992, -0.320, 19:29:44.031, 1589045384031
107, -1017.49, 0.00, 0.00, 0.00, 0.064, -0.992, -0.320, 19:29:44.032, 1589045384032
108, -849.30, 0.00, 0.00, 0.00, 0.064, -0.992, -0.320, 19:29:44.032, 1589045384032
109, -556.90, 0.00, 0.00, 0.00, 0.064, -0.992, -0.320, 19:29:44.045, 1589045384045
110, -734.22, 0.00, 0.00, 0.00, 0.064, -0.992, -0.320, 19:29:44.045, 1589045384045
111, -1026.79, 0.00, 0.00, 0.00, 0.064, -0.992, -0.320, 19:29:44.061, 1589045384061
112, -845.47, 0.00, 0.00, 0.00, 0.064, -0.992, -0.320, 19:29:44.061, 1589045384061
113, -543.78, 0.00, 0.00, 0.00, 0.064, -0.992, -0.320, 19:29:44.062, 1589045384062
114, -715.00, 0.00, 0.00, 0.00, 0.064, -0.992, -0.320, 19:29:44.062, 1589045384062
115, -1014.17, 0.00, 0.00, 0.00, 0.064, -0.992, -0.320, 19:29:44.076, 1589045384076
116, -861.59, 0.00, 0.00, 0.00, 0.064, -0.992, -0.320, 19:29:44.076, 1589045384076
117, -551.24, 0.00, 0.00, 0.00, 0.064, -0.992, -0.320, 19:29:44.091, 1589045384091
118, -719.52, 0.00, 0.00, 0.00, 0.064, -0.992, -0.320, 19:29:44.091, 1589045384091
119, -1016.36, 0.00, 0.00, 0.00, 0.064, -0.992, -0.320, 19:29:44.092, 1589045384092
120, -861.96, 0.00, 0.00, 0.00, 0.064, -0.992, -0.320, 19:29:44.092, 1589045384092
121, -556.35, 0.00, 0.00, 0.00, 0.064, -0.992, -0.320, 19:29:44.105, 1589045384105
122, -702.21, 0.00, 0.00, 0.00, 0.064, -0.992, -0.320, 19:29:44.105, 1589045384105
123, -1015.12, 0.00, 0.00, 0.00, 0.064, -0.992, -0.320, 19:29:44.121, 1589045384121
124, -844.68, 0.00, 0.00, 0.00, 0.064, -0.992, -0.320, 19:29:44.121, 1589045384121
125, -546.51, 0.00, 0.00, 0.00, 0.064, -0.992, -0.320, 19:29:44.123, 1589045384123
126, -709.56, 0.00, 0.00, 0.00, 0.064, -0.992, -0.320, 19:29:44.123, 1589045384123
127, -1000.04, 0.00, 0.00, 0.00, 0.064, -0.992, -0.320, 19:29:44.136, 1589045384136
128, -835.65, 0.00, 0.00, 0.00, 0.064, -0.992, -0.320, 19:29:44.136, 1589045384136
129, -549.74, 0.00, 0.00, 0.00, 0.064, -0.992, -0.320, 19:29:44.151, 1589045384151
130, -706.76, 0.00, 0.00, 0.00, 0.064, -0.992, -0.320, 19:29:44.151, 1589045384151
131, -1015.52, 0.00, 0.00, 0.00, 0.064, -0.992, -0.320, 19:29:44.152, 1589045384152
132, -837.99, 0.00, 0.00, 0.00, 0.064, -0.992, -0.320, 19:29:44.152, 1589045384152
133, -549.58, 0.00, 0.00, 0.00, 0.064, -0.992, -0.320, 19:29:44.182, 1589045384182
134, -702.05, 0.00, 0.00, 0.00, 0.064, -0.992, -0.320, 19:29:44.182, 1589045384182
135, -1011.04, 0.00, 0.00, 0.00, 0.064, -0.992, -0.320, 19:29:44.183, 1589045384183
136, -838.05, 0.00, 0.00, 0.00, 0.064, -0.992, -0.320, 19:29:44.183, 1589045384183
137, -523.51, 0.00, 0.00, 0.00, 0.064, -0.992, -0.320, 19:29:44.184, 1589045384184
138, -716.47, 0.00, 0.00, 0.00, 0.064, -0.992, -0.320, 19:29:44.184, 1589045384184
139, -1009.73, 0.00, 0.00, 0.00, 0.064, -0.992, -0.320, 19:29:44.212, 1589045384212
140, -831.37, 0.00, 0.00, 0.00, 0.064, -0.992, -0.320, 19:29:44.212, 1589045384212
141, -543.22, 0.00, 0.00, 0.00, 0.064, -0.992, -0.320, 19:29:44.212, 1589045384212
142, -707.38, 0.00, 0.00, 0.00, 0.064, -0.992, -0.320, 19:29:44.212, 1589045384212
143, -1010.73, 0.00, 0.00, 0.00, 0.064, -0.992, -0.320, 19:29:44.213, 1589045384213
144, -838.30, 0.00, 0.00, 0.00, 0.064, -0.992, -0.320, 19:29:44.213, 1589045384213
145, -541.84, 0.00, 0.00, 0.00, 0.064, -0.992, -0.320, 19:29:44.226, 1589045384226
146, -707.30, 0.00, 0.00, 0.00, 0.064, -0.992, -0.320, 19:29:44.226, 1589045384226
147, -1003.49, 0.00, 0.00, 0.00, 0.064, -0.992, -0.320, 19:29:44.241, 1589045384241
148, -845.86, 0.00, 0.00, 0.00, 0.064, -0.992, -0.320, 19:29:44.241, 1589045384241
149, -539.45, 0.00, 0.00, 0.00, 0.064, -0.992, -0.320, 19:29:44.242, 1589045384242
150, -714.13, 0.00, 0.00, 0.00, 0.064, -0.992, -0.320, 19:29:44.242, 1589045384242
151, -1014.75, 0.00, 0.00, 0.00, 0.064, -0.992, -0.320, 19:29:44.256, 1589045384256
152, -835.99, 0.00, 0.00, 0.00, 0.064, -0.992, -0.320, 19:29:44.256, 1589045384256
153, -537.76, 0.00, 0.00, 0.00, 0.064, -0.992, -0.320, 19:29:44.271, 1589045384271
154, -725.47, 0.00, 0.00, 0.00, 0.064, -0.992, -0.320, 19:29:44.271, 1589045384271
155, -1004.81, 0.00, 0.00, 0.00, 0.064, -0.992, -0.320, 19:29:44.272, 1589045384272
156, -821.25, 0.00, 0.00, 0.00, 0.064, -0.992, -0.320, 19:29:44.272, 1589045384272
157, -540.66, 0.00, 0.00, 0.00, 0.064, -0.992, -0.320, 19:29:44.286, 1589045384286
158, -726.49, 0.00, 0.00, 0.00, 0.064, -0.992, -0.320, 19:29:44.286, 1589045384286
159, -1013.51, 0.00, 0.00, 0.00, 0.064, -0.992, -0.320, 19:29:44.302, 1589045384302
160, -847.61, 0.00, 0.00, 0.00, 0.064, -0.992, -0.320, 19:29:44.302, 1589045384302
161, -542.81, 0.00, 0.00, 0.00, 0.064, -0.992, -0.320, 19:29:44.302, 1589045384302
162, -708.70, 0.00, 0.00, 0.00, 0.064, -0.992, -0.320, 19:29:44.302, 1589045384302
163, -1025.88, 0.00, 0.00, 0.00, 0.064, -0.992, -0.320, 19:29:44.316, 1589045384316
164, -833.23, 0.00, 0.00, 0.00, 0.064, -0.992, -0.320, 19:29:44.316, 1589045384316
165, -544.25, 0.00, 0.00, 0.00, 0.064, -0.992, -0.320, 19:29:44.331, 1589045384331
166, -705.86, 0.00, 0.00, 0.00, 0.064, -0.992, -0.320, 19:29:44.331, 1589045384331
167, -1020.30, 0.00, 0.00, 0.00, 0.064, -0.992, -0.320, 19:29:44.332, 1589045384332
168, -853.76, 0.00, 0.00, 0.00, 0.064, -0.992, -0.320, 19:29:44.332, 1589045384332
169, -524.35, 0.00, 0.00, 0.00, 0.064, -0.992, -0.320, 19:29:44.345, 1589045384345
170, -727.47, 0.00, 0.00, 0.00, 0.064, -0.992, -0.320, 19:29:44.345, 1589045384345
171, -1016.39, 0.00, 0.00, 0.00, 0.064, -0.992, -0.320, 19:29:44.361, 1589045384361
172, -829.53, 0.00, 0.00, 0.00, 0.064, -0.992, -0.320, 19:29:44.361, 1589045384361
173, -549.76, 0.00, 0.00, 0.00, 0.064, -0.992, -0.320, 19:29:44.362, 1589045384362
174, -708.57, 0.00, 0.00, 0.00, 0.064, -0.992, -0.320, 19:29:44.362, 1589045384362
175, -1015.65, 0.00, 0.00, 0.00, 0.064, -0.992, -0.320, 19:29:44.376, 1589045384376
176, -839.52, 0.00, 0.00, 0.00, 0.064, -0.992, -0.320, 19:29:44.376, 1589045384376
177, -537.32, 0.00, 0.00, 0.00, 0.064, -0.992, -0.320, 19:29:44.391, 1589045384391
178, -726.18, 0.00, 0.00, 0.00, 0.064, -0.992, -0.320, 19:29:44.391, 1589045384391
179, -1008.05, 0.00, 0.00, 0.00, 0.064, -0.992, -0.320, 19:29:44.406, 1589045384406
180, -842.94, 0.00, 0.00, 0.00, 0.064, -0.992, -0.320, 19:29:44.406, 1589045384406
181, -525.53, 0.00, 0.00, 0.00, 0.064, -0.992, -0.320, 19:29:44.407, 1589045384407
182, -701.26, 0.00, 0.00, 0.00, 0.064, -0.992, -0.320, 19:29:44.407, 1589045384407
183, -1025.96, 0.00, 0.00, 0.00, 0.064, -0.992, -0.320, 19:29:44.421, 1589045384421
184, -838.36, 0.00, 0.00, 0.00, 0.064, -0.992, -0.320, 19:29:44.421, 1589045384421
185, -508.93, 0.00, 0.00, 0.00, 0.064, -0.992, -0.320, 19:29:44.422, 1589045384422
186, -721.88, 0.00, 0.00, 0.00, 0.064, -0.992, -0.320, 19:29:44.422, 1589045384422
187, -1031.37, 0.00, 0.00, 0.00, 0.064, -0.992, -0.320, 19:29:44.436, 1589045384436
188, -835.14, 0.00, 0.00, 0.00, 0.064, -0.992, -0.320, 19:29:44.436, 1589045384436
189, -527.21, 0.00, 0.00, 0.00, 0.064, -0.992, -0.320, 19:29:44.451, 1589045384451
190, -706.68, 0.00, 0.00, 0.00, 0.064, -0.992, -0.320, 19:29:44.451, 1589045384451
191, -1025.03, 0.00, 0.00, 0.00, 0.064, -0.992, -0.320, 19:29:44.452, 1589045384452
192, -833.73, 0.00, 0.00, 0.00, 0.064, -0.992, -0.320, 19:29:44.452, 1589045384452
193, -533.26, 0.00, 0.00, 0.00, 0.064, -0.992, -0.320, 19:29:44.465, 1589045384465
194, -715.27, 0.00, 0.00, 0.00, 0.064, -0.992, -0.320, 19:29:44.465, 1589045384465
195, -1019.16, 0.00, 0.00, 0.00, 0.064, -0.992, -0.320, 19:29:44.481, 1589045384481
196, -841.52, 0.00, 0.00, 0.00, 0.064, -0.992, -0.320, 19:29:44.481, 1589045384481
197, -535.55, 0.00, 0.00, 0.00, 0.064, -0.992, -0.320, 19:29:44.482, 1589045384482
198, -726.34, 0.00, 0.00, 0.00, 0.064, -0.992, -0.320, 19:29:44.482, 1589045384482
199, -1021.55, 0.00, 0.00, 0.00, 0.064, -0.992, -0.320, 19:29:44.496, 1589045384496
200, -821.12, 0.00, 0.00, 0.00, 0.064, -0.992, -0.320, 19:29:44.496, 1589045384496
0, 431.24, 0.00, 0.00, 0.00, 0.064, -0.992, -0.320, 19:29:44.497, 1589045384497
1, 263.14, 0.00, 0.00, 0.00, 0.064, -0.992, -0.320, 19:29:44.510, 1589045384510
2, -36.21, 0.00, 0.00, 0.00, 0.064, -0.992, -0.320, 19:29:44.510, 1589045384510
3, 157.88, 0.00, 0.00, 0.00, 0.064, -0.992, -0.320, 19:29:44.526, 1589045384526
4, 444.01, 0.00, 0.00, 0.00, 0.064, -0.992, -0.320, 19:29:44.526, 1589045384526
5, 259.96, 0.00, 0.00, 0.00, 0.064, -0.992, -0.320, 19:29:44.527, 1589045384527
6, -42.66, 0.00, 0.00, 0.00, 0.064, -0.992, -0.320, 19:29:44.527, 1589045384527
7, 152.66, 0.00, 0.00, 0.00, 0.064, -0.992, -0.320, 19:29:44.541, 1589045384541
8, 447.06, 0.00, 0.00, 0.00, 0.064, -0.992, -0.320, 19:29:44.541, 1589045384541
9, 261.74, 0.00, 0.00, 0.00, 0.064, -0.992, -0.320, 19:29:44.556, 1589045384556
10, -47.88, 0.00, 0.00, 0.00, 0.064, -0.992, -0.320, 19:29:44.556, 1589045384556
11, 153.00, 0.00, 0.00, 0.00, 0.064, -0.992, -0.320, 19:29:44.557, 1589045384557
12, 450.26, 0.00, 0.00, 0.00, 0.064, -0.992, -0.320, 19:29:44.557, 1589045384557
13, 257.35, 0.00, 0.00, 0.00, 0.064, -0.992, -0.320, 19:29:44.570, 1589045384570
14, -56.44, 0.00, 0.00, 0.00, 0.064, -0.992, -0.320, 19:29:44.570, 1589045384570
15, 142.36, 0.00, 0.00, 0.00, 0.064, -0.992, -0.320, 19:29:44.586, 1589045384586
16, 448.19, 0.00, 0.00, 0.00, 0.064, -0.992, -0.320, 19:29:44.586, 1589045384586
17, 270.33, 0.00, 0.00, 0.00, 0.064, -0.992, -0.320, 19:29:44.587, 1589045384587
18, -48.03, 0.00, 0.00, 0.00, 0.064, -0.992, -0.320, 19:29:44.587, 1589045384587
19, 141.74, 0.00, 0.00, 0.00, 0.064, -0.992, -0.320, 19:29:44.600, 1589045384600
20, 447.32, 0.00, 0.00, 0.00, 0.064, -0.992, -0.320, 19:29:44.600, 1589045384600
21, 244.05, 0.00, 0.00, 0.00, 0.064, -0.992, -0.320, 19:29:44.616, 1589045384616
22, -46.38, 0.00, 0.00, 0.00, 0.064, -0.992, -0.320, 19:29:44.616, 1589045384616
23, 148.63, 0.00, 0.00, 0.00, 0.064, -0.992, -0.320, 19:29:44.617, 1589045384617
24, 434.45, 0.00, 0.00, 0.00, 0.064, -0.992, -0.320, 19:29:44.617, 1589045384617
25, 242.85, 0.00, 0.00, 0.00, 0.064, -0.992, -0.320, 19:29:44.631, 1589045384631
26, -56.23, 0.00, 0.00, 0.00, 0.064, -0.992, -0.320, 19:29:44.631, 1589045384631
27, 143.40, 0.00, 0.00, 0.00, 0.064, -0.992, -0.320, 19:29:44.646, 1589045384646
28, 453.65, 0.00, 0.00, 0.00, 0.064, -0.992, -0.320, 19:29:44.646, 1589045384646
29, 250.44, 0.00, 0.00, 0.00, 0.064, -0.992, -0.320, 19:29:44.647, 1589045384647
30, -53.68, 0.00, 0.00, 0.00, 0.064, -0.992, -0.320, 19:29:44.647, 1589045384647
31, 141.48, 0.00, 0.00, 0.00, 0.064, -0.992, -0.320, 19:29:44.661, 1589045384661
32, 446.57, 0.00, 0.00, 0.00, 0.064, -0.992, -0.320, 19:29:44.661, 1589045384661
33, 251.01, 0.00, 0.00, 0.00, 0.064, -0.992, -0.320, 19:29:44.676, 1589045384676
34, -59.98, 0.00, 0.00, 0.00, 0.064, -0.992, -0.320, 19:29:44.676, 1589045384676
35, 154.53, 0.00, 0.00, 0.00, 0.064, -0.992, -0.320, 19:29:44.677, 1589045384677
36, 442.65, 0.00, 0.00, 0.00, 0.064, -0.992, -0.320, 19:29:44.677, 1589045384677
37, 261.29, 0.00, 0.00, 0.00, 0.064, -0.992, -0.320, 19:29:44.691, 1589045384691
38, -36.55, 0.00, 0.00, 0.00, 0.064, -0.992, -0.320, 19:29:44.691, 1589045384691
39, 132.03, 0.00, 0.00, 0.00, 0.064, -0.992, -0.320, 19:29:44.706, 1589045384706
40, 438.98, 0.00, 0.00, 0.00, 0.064, -0.992, -0.320, 19:29:44.706, 1589045384706
41, 246.80, 0.00, 0.00, 0.00, 0.064, -0.992, -0.320, 19:29:44.707, 1589045384707
42, -44.86, 0.00, 0.00, 0.00, 0.064, -0.992, -0.320, 19:29:44.707, 1589045384707
43, 150.07, 0.00, 0.00, 0.00, 0.064, -0.992, -0.320, 19:29:44.721, 1589045384721
44, 434.39, 0.00, 0.00, 0.00, 0.064, -0.992, -0.320, 19:29:44.721, 1589045384721
45, 248.66, 0.00, 0.00, 0.00, 0.064, -0.992, -0.320, 19:29:44.736, 1589045384736
46, -52.91, 0.00, 0.00, 0.00, 0.064, -0.992, -0.320, 19:29:44.736, 1589045384736
47, 140.97, 0.00, 0.00, 0.00, 0.064, -0.992, -0.320, 19:29:44.737, 1589045384737
48, 449.52, 0.00, 0.00, 0.00, 0.064, -0.992, -0.320, 19:29:44.737, 1589045384737
49, 238.31, 0.00, 0.00, 0.00, 0.064, -0.992, -0.320, 19:29:44.751, 1589045384751
50, -55.52, 0.00, 0.00, 0.00, 0.064, -0.992, -0.320, 19:29:44.751, 1589045384751
51, 148.99, 0.00, 0.00, 0.00, 0.064, -0.992, -0.320, 19:29:44.766, 1589045384766
52, 453.55, 0.00, 0.00, 0.00, 0.064, -0.992, -0.320, 19:29:44.766, 1589045384766
53, 239.17, 0.00, 0.00, 0.00, 0.064, -0.992, -0.320, 19:29:44.767, 1589045384767
54, -70.37, 0.00, 0.00, 0.00, 0.064, -0.992, -0.320, 19:29:44.767, 1589045384767
55, 151.00, 0.00, 0.00, 0.00, 0.064, -0.992, -0.320, 19:29:44.781, 1589045384781
56, 445.21, 0.00, 0.00, 0.00, 0.064, -0.992, -0.320, 19:29:44.781, 1589045384781
57, 241.92, 0.00, 0.00, 0.00, 0.064, -0.992, -0.320, 19:29:44.796, 1589045384796
58, -46.82, 0.00, 0.00, 0.00, 0.064, -0.992, -0.320, 19:29:44.796, 1589045384796
59, 138.30, 0.00, 0.00, 0.00, 0.064, -0.992, -0.320, 19:29:44.797, 1589045384797
60, 435.77, 0.00, 0.00, 0.00, 0.064, -0.992, -0.320, 19:29:44.797, 1589045384797
61, 242.16, 0.00, 0.00, 0.00, 0.064, -0.992, -0.320, 19:29:44.810, 1589045384810
62, -55.98, 0.00, 0.00, 0.00, 0.064, -0.992, -0.320, 19:29:44.810, 1589045384810
63, 142.99, 0.00, 0.00, 0.00, 0.064, -0.992, -0.320, 19:29:44.828, 1589045384828
64, 435.32, 0.00, 0.00, 0.00, 0.064, -0.992, -0.320, 19:29:44.828, 1589045384828
65, 237.51, 0.00, 0.00, 0.00, 0.064, -0.992, -0.320, 19:29:44.828, 1589045384828
66, -48.18, 0.00, 0.00, 0.00, 0.064, -0.992, -0.320, 19:29:44.828, 1589045384828
67, 144.16, 0.00, 0.00, 0.00, 0.064, -0.992, -0.320, 19:29:44.841, 1589045384841
68, 444.27, 0.00, 0.00, 0.00, 0.064, -0.992, -0.320, 19:29:44.841, 1589045384841
69, 231.54, 0.00, 0.00, 0.00, 0.064, -0.992, -0.320, 19:29:44.856, 1589045384856
70, -61.02, 0.00, 0.00, 0.00, 0.064, -0.992, -0.320, 19:29:44.856, 1589045384856
71, 148.56, 0.00, 0.00, 0.00, 0.064, -0.992, -0.320, 19:29:44.857, 1589045384857
72, 434.12, 0.00, 0.00, 0.00, 0.064, -0.992, -0.320, 19:29:44.857, 1589045384857
73, 237.50, 0.00, 0.00, 0.00, 0.064, -0.992, -0.320, 19:29:44.870, 1589045384870
74, -67.00, 0.00, 0.00, 0.00, 0.064, -0.992, -0.320, 19:29:44.870, 1589045384870
75, 144.20, 0.00, 0.00, 0.00, 0.064, -0.992, -0.320, 19:29:44.886, 1589045384886
76, 450.75, 0.00, 0.00, 0.00, 0.064, -0.992, -0.320, 19:29:44.886, 1589045384886
77, 224.34, 0.00, 0.00, 0.00, 0.064, -0.992, -0.320, 19:29:44.887, 1589045384887
78, -65.00, 0.00, 0.00, 0.00, 0.064, -0.992, -0.320, 19:29:44.887, 1589045384887
79, 142.36, 0.00, 0.00, 0.00, 0.064, -0.992, -0.320, 19:29:44.900, 1589045384900
80, 441.51, 0.00, 0.00, 0.00, 0.064, -0.992, -0.320, 19:29:44.900, 1589045384900
81, 243.01, 0.00, 0.00, 0.00, 0.064, -0.992, -0.320, 19:29:44.916, 1589045384916
82, -71.99, 0.00, 0.00, 0.00, 0.064, -0.992, -0.320, 19:29:44.916, 1589045384916
83, 127.48, 0.00, 0.00, 0.00, 0.064, -0.992, -0.320, 19:29:44.917, 1589045384917
84, 444.54, 0.00, 0.00, 0.00, 0.064, -0.992, -0.320, 19:29:44.917, 1589045384917
85, 240.32, 0.00, 0.00, 0.00, 0.064, -0.992, -0.320, 19:29:44.931, 1589045384931
86, -59.14, 0.00, 0.00, 0.00, 0.064, -0.992, -0.320, 19:29:44.931, 1589045384931
87, 137.18, 0.00, 0.00, 0.00, 0.064, -0.992, -0.320, 19:29:44.946, 1589045384946
88, 436.89, 0.00, 0.00, 0.00, 0.064, -0.992, -0.320, 19:29:44.946, 1589045384946
89, 225.20, 0.00, 0.00, 0.00, 0.064, -0.992, -0.320, 19:29:44.947, 1589045384947
90, -61.34, 0.00, 0.00, 0.00, 0.064, -0.992, -0.320, 19:29:44.947, 1589045384947
91, 163.63, 0.00, 0.00, 0.00, 0.064, -0.992, -0.320, 19:29:44.961, 1589045384961
92, 423.57, 0.00, 0.00, 0.00, 0.064, -0.992, -0.320, 19:29:44.961, 1589045384961
93, 215.98, 0.00, 0.00, 0.00, 0.064, -0.992, -0.320, 19:29:44.977, 1589045384977
94, -65.99, 0.00, 0.00, 0.00, 0.064, -0.992, -0.320, 19:29:44.977, 1589045384977
95, 139.40, 0.00, 0.00, 0.00, 0.064, -0.992, -0.320, 19:29:44.978, 1589045384978
96, 442.92, 0.00, 0.00, 0.00, 0.064, -0.992, -0.320, 19:29:44.978, 1589045384978
97, 221.15, 0.00, 0.00, 0.00, 0.064, -0.992, -0.320, 19:29:44.991, 1589045384991
98, -72.53, 0.00, 0.00, 0.00, 0.064, -0.992, -0.320, 19:29:44.991, 1589045384991
99, 129.69, 0.00, 0.00, 0.00, 0.064, -0.992, -0.320, 19:29:45.006, 1589045385006
100, 431.77, 0.00, 0.00, 0.00, 0.064, -0.992, -0.320, 19:29:45.006, 1589045385006
101, 214.75, 0.00, 0.00, 0.00, 0.064, -0.992, -0.320, 19:29:45.007, 1589045385007
102, -97.61, 0.00, 0.00, 0.00, 0.064, -0.992, -0.320, 19:29:45.007, 1589045385007
103, 137.84, 0.00, 0.00, 0.00, 0.064, -0.992, -0.320, 19:29:45.021, 1589045385021
104, 430.27, 0.00, 0.00, 0.00, 0.064, -0.992, -0.320, 19:29:45.021, 1589045385021
105, 226.08, 0.00, 0.00, 0.00, 0.064, -0.992, -0.320, 19:29:45.036, 1589045385036
106, -58.16, 0.00, 0.00, 0.00, 0.064, -0.992, -0.320, 19:29:45.036, 1589045385036
107, 128.62, 0.00, 0.00, 0.00, 0.064, -0.992, -0.320, 19:29:45.037, 1589045385037
108, 430.92, 0.00, 0.00, 0.00, 0.064, -0.992, -0.320, 19:29:45.037, 1589045385037
109, 214.69, 0.00, 0.00, 0.00, 0.064, -0.992, -0.320, 19:29:45.067, 1589045385067
110, -65.01, 0.00, 0.00, 0.00, 0.064, -0.992, -0.320, 19:29:45.067, 1589045385067
111, 150.57, 0.00, 0.00, 0.00, 0.064, -0.992, -0.320, 19:29:45.067, 1589045385067
112, 424.70, 0.00, 0.00, 0.00, 0.064, -0.992, -0.320, 19:29:45.067, 1589045385067
113, 227.59, 0.00, 0.00, 0.00, 0.064, -0.992, -0.320, 19:29:45.068, 1589045385068
114, -64.73, 0.00, 0.00, 0.00, 0.064, -0.992, -0.320, 19:29:45.068, 1589045385068
115, 157.11, 0.00, 0.00, 0.00, 0.064, -0.992, -0.320, 19:29:45.080, 1589045385080
116, 449.17, 0.00, 0.00, 0.00, 0.064, -0.992, -0.320, 19:29:45.080, 1589045385080
117, 213.35, 0.00, 0.00, 0.00, 0.064, -0.992, -0.320, 19:29:45.113, 1589045385113
118, -70.31, 0.00, 0.00, 0.00, 0.064, -0.992, -0.320, 19:29:45.113, 1589045385113
119, 147.99, 0.00, 0.00, 0.00, 0.064, -0.992, -0.320, 19:29:45.113, 1589045385113
120, 454.74, 0.00, 0.00, 0.00, 0.064, -0.992, -0.320, 19:29:45.113, 1589045385113
121, 231.87, 0.00, 0.00, 0.00, 0.064, -0.992, -0.320, 19:29:45.114, 1589045385114
122, -72.92, 0.00, 0.00, 0.00, 0.064, -0.992, -0.320, 19:29:45.114, 1589045385114
123, 155.18, 0.00, 0.00, 0.00, 0.064, -0.992, -0.320, 19:29:45.115, 1589045385115
124, 444.55, 0.00, 0.00, 0.00, 0.064, -0.992, -0.320, 19:29:45.115, 1589045385115
125, 229.54, 0.00, 0.00, 0.00, 0.064, -0.992, -0.320, 19:29:45.128, 1589045385128
126, -65.61, 0.00, 0.00, 0.00, 0.064, -0.992, -0.320, 19:29:45.128, 1589045385128
127, 146.88, 0.00, 0.00, 0.00, 0.064, -0.992, -0.320, 19:29:45.141, 1589045385141
128, 452.06, 0.00, 0.00, 0.00, 0.064, -0.992, -0.320, 19:29:45.141, 1589045385141
129, 225.71, 0.00, 0.00, 0.00, 0.064, -0.992, -0.320, 19:29:45.156, 1589045385156
130, -76.04, 0.00, 0.00, 0.00, 0.064, -0.992, -0.320, 19:29:45.156, 1589045385156
131, 149.25, 0.00, 0.00, 0.00, 0.064, -0.992, -0.320, 19:29:45.157, 1589045385157
132, 438.66, 0.00, 0.00, 0.00, 0.064, -0.992, -0.320, 19:29:45.157, 1589045385157
133, 221.69, 0.00, 0.00, 0.00, 0.064, -0.992, -0.320, 19:29:45.170, 1589045385170
134, -57.63, 0.00, 0.00, 0.00, 0.064, -0.992, -0.320, 19:29:45.170, 1589045385170
135, 144.48, 0.00, 0.00, 0.00, 0.064, -0.992, -0.320, 19:29:45.186, 1589045385186
136, 429.37, 0.00, 0.00, 0.00, 0.064, -0.992, -0.320, 19:29:45.186, 1589045385186
137, 218.98, 0.00, 0.00, 0.00, 0.064, -0.992, -0.320, 19:29:45.187, 1589045385187
138, -71.49, 0.00, 0.00, 0.00, 0.064, -0.992, -0.320, 19:29:45.187, 1589045385187
139, 146.06, 0.00, 0.00, 0.00, 0.064, -0.992, -0.320, 19:29:45.201, 1589045385201
140, 434.92, 0.00, 0.00, 0.00, 0.064, -0.992, -0.320, 19:29:45.201, 1589045385201
141, 226.97, 0.00, 0.00, 0.00, 0.064, -0.992, -0.320, 19:29:45.216, 1589045385216
142, -88.56, 0.00, 0.00, 0.00, 0.064, -0.992, -0.320, 19:29:45.216, 1589045385216
143, 132.41, 0.00, 0.00, 0.00, 0.064, -0.992, -0.320, 19:29:45.217, 1589045385217
144, 445.14, 0.00, 0.00, 0.00, 0.064, -0.992, -0.320, 19:29:45.217, 1589045385217
145, 206.54, 0.00, 0.00, 0.00, 0.064, -0.992, -0.320, 19:29:45.234, 1589045385234
146, -89.31, 0.00, 0.00, 0.00, 0.064, -0.992, -0.320, 19:29:45.234, 1589045385234
147, 151.43, 0.00, 0.00, 0.00, 0.064, -0.992, -0.320, 19:29:45.246, 1589045385246
148, 442.85, 0.00, 0.00, 0.00, 0.064, -0.992, -0.320, 19:29:45.246, 1589045385246
149, 220.05, 0.00, 0.00, 0.00, 0.064, -0.992, -0.320, 19:29:45.247, 1589045385247
150, -69.42, 0.00, 0.00, 0.00, 0.064, -0.992, -0.320, 19:29:45.247, 1589045385247
151, 140.56, 0.00, 0.00, 0.00, 0.064, -0.992, -0.320, 19:29:45.261, 1589045385261
152, 422.39, 0.00, 0.00, 0.00, 0.064, -0.992, -0.320, 19:29:45.261, 1589045385261
153, 212.04, 0.00, 0.00, 0.00, 0.064, -0.992, -0.320, 19:29:45.293, 1589045385293
154, -75.40, 0.00, 0.00, 0.00, 0.064, -0.992, -0.320, 19:29:45.293, 1589045385293
155, 130.84, 0.00, 0.00, 0.00, 0.064, -0.992, -0.320, 19:29:45.294, 1589045385294
156, 422.09, 0.00, 0.00, 0.00, 0.064, -0.992, -0.320, 19:29:45.294, 1589045385294
157, 211.18, 0.00, 0.00, 0.00, 0.064, -0.992, -0.320, 19:29:45.294, 1589045385294
158, -90.60, 0.00, 0.00, 0.00, 0.064, -0.992, -0.320, 19:29:45.294, 1589045385294
159, 134.94, 0.00, 0.00, 0.00, 0.064, -0.992, -0.320, 19:29:45.295, 1589045385295
160, 417.84, 0.00, 0.00, 0.00, 0.064, -0.992, -0.320, 19:29:45.295, 1589045385295
161, 205.56, 0.00, 0.00, 0.00, 0.064, -0.992, -0.320, 19:29:45.305, 1589045385305
162, -78.58, 0.00, 0.00, 0.00, 0.064, -0.992, -0.320, 19:29:45.305, 1589045385305
163, 152.59, 0.00, 0.00, 0.00, 0.064, -0.992, -0.320, 19:29:45.337, 1589045385337
164, 424.66, 0.00, 0.00, 0.00, 0.064, -0.992, -0.320, 19:29:45.337, 1589045385337
165, 210.78, 0.00, 0.00, 0.00, 0.064, -0.992, -0.320, 19:29:45.338, 1589045385338
166, -75.23, 0.00, 0.00, 0.00, 0.064, -0.992, -0.320, 19:29:45.338, 1589045385338
167, 156.20, 0.00, 0.00, 0.00, 0.064, -0.992, -0.320, 19:29:45.338, 1589045385338
168, 442.60, 0.00, 0.00, 0.00, 0.064, -0.992, -0.320, 19:29:45.338, 1589045385338
169, 211.26, 0.00, 0.00, 0.00, 0.064, -0.992, -0.320, 19:29:45.351, 1589045385351
170, -84.47, 0.00, 0.00, 0.00, 0.064, -0.992, -0.320, 19:29:45.351, 1589045385351
171, 155.11, 0.00, 0.00, 0.00, 0.064, -0.992, -0.320, 19:29:45.366, 1589045385366
172, 449.51, 0.00, 0.00, 0.00, 0.064, -0.992, -0.320, 19:29:45.366, 1589045385366
173, 218.67, 0.00, 0.00, 0.00, 0.064, -0.992, -0.320, 19:29:45.367, 1589045385367
174, -80.14, 0.00, 0.00, 0.00, 0.064, -0.992, -0.320, 19:29:45.367, 1589045385367
175, 146.24, 0.00, 0.00, 0.00, 0.064, -0.992, -0.320, 19:29:45.381, 1589045385381
176, 450.98, 0.00, 0.00, 0.00, 0.064, -0.992, -0.320, 19:29:45.381, 1589045385381
177, 215.29, 0.00, 0.00, 0.00, 0.064, -0.992, -0.320, 19:29:45.396, 1589045385396
178, -81.24, 0.00, 0.00, 0.00, 0.064, -0.992, -0.320, 19:29:45.396, 1589045385396
179, 163.69, 0.00, 0.00, 0.00, 0.064, -0.992, -0.320, 19:29:45.397, 1589045385397
180, 440.15, 0.00, 0.00, 0.00, 0.064, -0.992, -0.320, 19:29:45.397, 1589045385397
181, 223.04, 0.00, 0.00, 0.00, 0.064, -0.992, -0.320, 19:29:45.411, 1589045385411
182, -76.91, 0.00, 0.00, 0.00, 0.064, -0.992, -0.320, 19:29:45.411, 1589045385411
183, 150.20, 0.00, 0.00, 0.00, 0.064, -0.992, -0.320, 19:29:45.427, 1589045385427
184, 456.59, 0.00, 0.00, 0.00, 0.064, -0.992, -0.320, 19:29:45.427, 1589045385427
185, 205.41, 0.00, 0.00, 0.00, 0.064, -0.992, -0.320, 19:29:45.427, 1589045385427
186, -79.07, 0.00, 0.00, 0.00, 0.064, -0.992, -0.320, 19:29:45.427, 1589045385427
187, 154.37, 0.00, 0.00, 0.00, 0.064, -0.992, -0.320, 19:29:45.441, 1589045385441
188, 453.86, 0.00, 0.00, 0.00, 0.064, -0.992, -0.320, 19:29:45.441, 1589045385441
189, 191.03, 0.00, 0.00, 0.00, 0.064, -0.992, -0.320, 19:29:45.456, 1589045385456
190, -90.41, 0.00, 0.00, 0.00, 0.064, -0.992, -0.320, 19:29:45.456, 1589045385456
191, 161.37, 0.00, 0.00, 0.00, 0.064, -0.992, -0.320, 19:29:45.457, 1589045385457
192, 439.47, 0.00, 0.00, 0.00, 0.064, -0.992, -0.320, 19:29:45.457, 1589045385457
193, 196.20, 0.00, 0.00, 0.00, 0.064, -0.992, -0.320, 19:29:45.471, 1589045385471
194, -80.23, 0.00, 0.00, 0.00, 0.064, -0.992, -0.320, 19:29:45.471, 1589045385471
195, 150.34, 0.00, 0.00, 0.00, 0.064, -0.992, -0.320, 19:29:45.486, 1589045385486
196, 440.53, 0.00, 0.00, 0.00, 0.064, -0.992, -0.320, 19:29:45.486, 1589045385486
197, 210.31, 0.00, 0.00, 0.00, 0.064, -0.992, -0.320, 19:29:45.487, 1589045385487
198, -82.02, 0.00, 0.00, 0.00, 0.064, -0.992, -0.320, 19:29:45.487, 1589045385487
199, 143.03, 0.00, 0.00, 0.00, 0.064, -0.992, -0.320, 19:29:45.501, 1589045385501
200, 432.64, 0.00, 0.00, 0.00, 0.064, -0.992, -0.320, 19:29:45.501, 1589045385501
0, 204.85, 0.00, 0.00, 0.00, 0.064, -0.992, -0.320, 19:29:45.516, 1589045385516
1, -90.74, 0.00, 0.00, 0.00, 0.064, -0.992, -0.320, 19:29:45.517, 1589045385517
2, 143.30, 0.00, 0.00, 0.00, 0.064, -0.992, -0.320, 19:29:45.517, 1589045385517
3, 440.78, 0.00, 0.00, 0.00, 0.064, -0.992, -0.320, 19:29:45.531, 1589045385531
4, 200.80, 0.00, 0.00, 0.00, 0.064, -0.992, -0.320, 19:29:45.531, 1589045385531
5, -82.14, 0.00, 0.00, 0.00, 0.064, -0.992, -0.320, 19:29:45.532, 1589045385532
6, 142.44, 0.00, 0.00, 0.00, 0.064, -0.992, -0.320, 19:29:45.532, 1589045385532
7, 439.69, 0.00, 0.00, 0.00, 0.064, -0.992, -0.320, 19:29:45.546, 1589045385546
8, 204.21, 0.00, 0.00, 0.00, 0.064, -0.992, -0.320, 19:29:45.546, 1589045385546
9, -94.28, 0.00, 0.00, 0.00, 0.064, -0.992, -0.320, 19:29:45.561, 1589045385561
10, 156.22, 0.00, 0.00, 0.00, 0.064, -0.992, -0.320, 19:29:45.561, 1589045385561
11, 441.10, 0.00, 0.00, 0.00, 0.064, -0.992, -0.320, 19:29:45.562, 1589045385562
12, 199.76, 0.00, 0.00, 0.00, 0.064, -0.992, -0.320, 19:29:45.562, 1589045385562
13, -97.17, 0.00, 0.00, 0.00, 0.064, -0.992, -0.320, 19:29:45.592, 1589045385592
14, 153.78, 0.00, 0.00, 0.00, 0.064, -0.992, -0.320, 19:29:45.592, 1589045385592
15, 451.19, 0.00, 0.00, 0.00, 0.064, -0.992, -0.320, 19:29:45.593, 1589045385593
16, 189.19, 0.00, 0.00, 0.00, 0.064, -0.992, -0.320, 19:29:45.593, 1589045385593
17, -85.59, 0.00, 0.00, 0.00, 0.064, -0.992, -0.320, 19:29:45.594, 1589045385594
18, 156.89, 0.00, 0.00, 0.00, 0.064, -0.992, -0.320, 19:29:45.594, 1589045385594
19, 444.14, 0.00, 0.00, 0.00, 0.064, -0.992, -0.320, 19:29:45.622, 1589045385622
20, 214.43, 0.00, 0.00, 0.00, 0.064, -0.992, -0.320, 19:29:45.622, 1589045385622
21, -89.73, 0.00, 0.00, 0.00, 0.064, -0.992, -0.320, 19:29:45.623, 1589045385623
22, 153.11, 0.00, 0.00, 0.00, 0.064, -0.992, -0.320, 19:29:45.623, 1589045385623
23, 437.74, 0.00, 0.00, 0.00, 0.064, -0.992, -0.320, 19:29:45.623, 1589045385623
24, 207.70, 0.00, 0.00, 0.00, 0.064, -0.992, -0.320, 19:29:45.623, 1589045385623
25, -74.41, 0.00, 0.00, 0.00, 0.064, -0.992, -0.320, 19:29:45.635, 1589045385635
26, 152.18, 0.00, 0.00, 0.00, 0.064, -0.992, -0.320, 19:29:45.635, 1589045385635
27, 442.95, 0.00, 0.00, 0.00, 0.064, -0.992, -0.320, 19:29:45.651, 1589045385651
28, 205.20, 0.00, 0.00, 0.00, 0.064, -0.992, -0.320, 19:29:45.651, 1589045385651
29, -81.51, 0.00, 0.00, 0.00, 0.064, -0.992, -0.320, 19:29:45.652, 1589045385652
30, 173.39, 0.00, 0.00, 0.00, 0.064, -0.992, -0.320, 19:29:45.652, 1589045385652
31, 457.77, 0.00, 0.00, 0.00, 0.064, -0.992, -0.320, 19:29:45.666, 1589045385666
32, 192.46, 0.00, 0.00, 0.00, 0.064, -0.992, -0.320, 19:29:45.666, 1589045385666
33, -90.04, 0.00, 0.00, 0.00, 0.064, -0.992, -0.320, 19:29:45.681, 1589045385681
34, 165.92, 0.00, 0.00, 0.00, 0.064, -0.992, -0.320, 19:29:45.681, 1589045385681
35, 455.61, 0.00, 0.00, 0.00, 0.064, -0.992, -0.320, 19:29:45.682, 1589045385682
36, 187.09, 0.00, 0.00, 0.00, 0.064, -0.992, -0.320, 19:29:45.682, 1589045385682
37, -86.56, 0.00, 0.00, 0.00, 0.064, -0.992, -0.320, 19:29:45.696, 1589045385696
38, 172.09, 0.00, 0.00, 0.00, 0.064, -0.992, -0.320, 19:29:45.696, 1589045385696
39, 455.07, 0.00, 0.00, 0.00, 0.064, -0.992, -0.320, 19:29:45.711, 1589045385711
40, 201.36, 0.00, 0.00, 0.00, 0.064, -0.992, -0.320, 19:29:45.711, 1589045385711
41, -76.74, 0.00, 0.00, 0.00, 0.064, -0.992, -0.320, 19:29:45.712, 1589045385712
42, 175.63, 0.00, 0.00, 0.00, 0.064, -0.992, -0.320, 19:29:45.712, 1589045385712
43, 465.46, 0.00, 0.00, 0.00, 0.064, -0.992, -0.320, 19:29:45.726, 1589045385726
44, 212.06, 0.00, 0.00, 0.00, 0.064, -0.992, -0.320, 19:29:45.726, 1589045385726
45, -83.40, 0.00, 0.00, 0.00, 0.064, -0.992, -0.320, 19:29:45.741, 1589045385741
46, 161.19, 0.00, 0.00, 0.00, 0.064, -0.992, -0.320, 19:29:45.741, 1589045385741
47, 458.53, 0.00, 0.00, 0.00, 0.064, -0.992, -0.320, 19:29:45.742, 1589045385742
48, 206.25, 0.00, 0.00, 0.00, 0.064, -0.992, -0.320, 19:29:45.742, 1589045385742
49, -75.38, 0.00, 0.00, 0.00, 0.064, -0.992, -0.320, 19:29:45.755, 1589045385755
50, 162.96, 0.00, 0.00, 0.00, 0.064, -0.992, -0.320, 19:29:45.755, 1589045385755
51, 453.61, 0.00, 0.00, 0.00, 0.064, -0.992, -0.320, 19:29:45.771, 1589045385771
52, 211.64, 0.00, 0.00, 0.00, 0.064, -0.992, -0.320, 19:29:45.771, 1589045385771
53, -77.48, 0.00, 0.00, 0.00, 0.064, -0.992, -0.320, 19:29:45.772, 1589045385772
54, 176.28, 0.00, 0.00, 0.00, 0.064, -0.992, -0.320, 19:29:45.772, 1589045385772
55, 459.41, 0.00, 0.00, 0.00, 0.064, -0.992, -0.320, 19:29:45.786, 1589045385786
56, 199.82, 0.00, 0.00, 0.00, 0.064, -0.992, -0.320, 19:29:45.786, 1589045385786
57, -82.38, 0.00, 0.00, 0.00, 0.064, -0.992, -0.320, 19:29:45.802, 1589045385802
58, 166.82, 0.00, 0.00, 0.00, 0.064, -0.992, -0.320, 19:29:45.802, 1589045385802
59, 458.67, 0.00, 0.00, 0.00, 0.064, -0.992, -0.320, 19:29:45.816, 1589045385816
60, 197.73, 0.00, 0.00, 0.00, 0.064, -0.992, -0.320, 19:29:45.816, 1589045385816
61, -90.97, 0.00, 0.00, 0.00, 0.064, -0.992, -0.320, 19:29:45.817, 1589045385817
62, 174.09, 0.00, 0.00, 0.00, 0.064, -0.992, -0.320, 19:29:45.817, 1589045385817
63, 458.07, 0.00, 0.00, 0.00, 0.064, -0.992, -0.320, 19:29:45.832, 1589045385832
64, 199.40, 0.00, 0.00, 0.00, 0.064, -0.992, -0.320, 19:29:45.832, 1589045385832
65, -86.26, 0.00, 0.00, 0.00, 0.064, -0.992, -0.320, 19:29:45.832, 1589045385832
66, 174.58, 0.00, 0.00, 0.00, 0.064, -0.992, -0.320, 19:29:45.832, 1589045385832
67, 459.92, 0.00, 0.00, 0.00, 0.064, -0.992, -0.320, 19:29:45.846, 1589045385846
68, 213.04, 0.00, 0.00, 0.00, 0.064, -0.992, -0.320, 19:29:45.846, 1589045385846
69, -98.10, 0.00, 0.00, 0.00, 0.064, -0.992, -0.320, 19:29:45.861, 1589045385861
70, 170.00, 0.00, 0.00, 0.00, 0.064, -0.992, -0.320, 19:29:45.861, 1589045385861
71, 449.00, 0.00, 0.00, 0.00, 0.064, -0.992, -0.320, 19:29:45.862, 1589045385862
72, 219.00, 0.00, 0.00, 0.00, 0.064, -0.992, -0.320, 19:29:45.862, 1589045385862
73, -82.77, 0.00, 0.00, 0.00, 0.064, -0.992, -0.320, 19:29:45.875, 1589045385875
74, 167.89, 0.00, 0.00, 0.00, 0.064, -0.992, -0.320, 19:29:45.875, 1589045385875
75, 452.34, 0.00, 0.00, 0.00, 0.064, -0.992, -0.320, 19:29:45.891, 1589045385891
76, 187.11, 0.00, 0.00, 0.00, 0.064, -0.992, -0.320, 19:29:45.891, 1589045385891
77, -90.17, 0.00, 0.00, 0.00, 0.064, -0.992, -0.320, 19:29:45.892, 1589045385892
78, 169.46, 0.00, 0.00, 0.00, 0.064, -0.992, -0.320, 19:29:45.892, 1589045385892
79, 445.85, 0.00, 0.00, 0.00, 0.064, -0.992, -0.320, 19:29:45.906, 1589045385906
80, 211.22, 0.00, 0.00, 0.00, 0.064, -0.992, -0.320, 19:29:45.906, 1589045385906
81, -97.22, 0.00, 0.00, 0.00, 0.064, -0.992, -0.320, 19:29:45.921, 1589045385921
82, 174.03, 0.00, 0.00, 0.00, 0.064, -0.992, -0.320, 19:29:45.921, 1589045385921
83, 460.44, 0.00, 0.00, 0.00, 0.064, -0.992, -0.320, 19:29:45.922, 1589045385922
84, 184.22, 0.00, 0.00, 0.00, 0.064, -0.992, -0.320, 19:29:45.922, 1589045385922
85, -101.62, 0.00, 0.00, 0.00, 0.064, -0.992, -0.320, 19:29:45.935, 1589045385935
86, 163.73, 0.00, 0.00, 0.00, 0.064, -0.992, -0.320, 19:29:45.935, 1589045385935
87, 460.64, 0.00, 0.00, 0.00, 0.064, -0.992, -0.320, 19:29:45.951, 1589045385951
88, 193.72, 0.00, 0.00, 0.00, 0.064, -0.992, -0.320, 19:29:45.951, 1589045385951
89, -108.70, 0.00, 0.00, 0.00, 0.064, -0.992, -0.320, 19:29:45.952, 1589045385952
90, 169.25, 0.00, 0.00, 0.00, 0.064, -0.992, -0.320, 19:29:45.952, 1589045385952
91, 470.67, 0.00, 0.00, 0.00, 0.064, -0.992, -0.320, 19:29:45.965, 1589045385965
92, 198.31, 0.00, 0.00, 0.00, 0.064, -0.992, -0.320, 19:29:45.965, 1589045385965
93, -90.52, 0.00, 0.00, 0.00, 0.064, -0.992, -0.320, 19:29:45.981, 1589045385981
94, 166.69, 0.00, 0.00, 0.00, 0.064, -0.992, -0.320, 19:29:45.981, 1589045385981
95, 459.27, 0.00, 0.00, 0.00, 0.064, -0.992, -0.320, 19:29:45.982, 1589045385982
96, 202.82, 0.00, 0.00, 0.00, 0.064, -0.992, -0.320, 19:29:45.982, 1589045385982
97, -79.04, 0.00, 0.00, 0.00, 0.064, -0.992, -0.320, 19:29:45.995, 1589045385995
98, 169.89, 0.00, 0.00, 0.00, 0.064, -0.992, -0.320, 19:29:45.995, 1589045385995
99, 462.18, 0.00, 0.00, 0.00, 0.064, -0.992, -0.320, 19:29:46.011, 1589045386011
100, 201.39, 0.00, 0.00, 0.00, 0.064, -0.992, -0.320, 19:29:46.011, 1589045386011
101, -93.48, 0.00, 0.00, 0.00, 0.064, -0.992, -0.320, 19:29:46.012, 1589045386012
102, 183.90, 0.00, 0.00, 0.00, 0.064, -0.992, -0.320, 19:29:46.012, 1589045386012
103, 444.19, 0.00, 0.00, 0.00, 0.064, -0.992, -0.320, 19:29:46.027, 1589045386027
104, 192.22, 0.00, 0.00, 0.00, 0.064, -0.992, -0.320, 19:29:46.027, 1589045386027
105, -78.79, 0.00, 0.00, 0.00, 0.064, -0.992, -0.320, 19:29:46.041, 1589045386041
106, 190.42, 0.00, 0.00, 0.00, 0.064, -0.992, -0.320, 19:29:46.041, 1589045386041
107, 475.27, 0.00, 0.00, 0.00, 0.064, -0.992, -0.320, 19:29:46.042, 1589045386042
108, 188.54, 0.00, 0.00, 0.00, 0.064, -0.992, -0.320, 19:29:46.042, 1589045386042
109, -96.13, 0.00, 0.00, 0.00, 0.064, -0.992, -0.320, 19:29:46.056, 1589045386056
110, 190.36, 0.00, 0.00, 0.00, 0.064, -0.992, -0.320, 19:29:46.056, 1589045386056
111, 463.37, 0.00, 0.00, 0.00, 0.064, -0.992, -0.320, 19:29:46.071, 1589045386071
112, 206.76, 0.00, 0.00, 0.00, 0.064, -0.992, -0.320, 19:29:46.071, 1589045386071
113, -96.58, 0.00, 0.00, 0.00, 0.064, -0.992, -0.320, 19:29:46.072, 1589045386072
114, 181.51, 0.00, 0.00, 0.00, 0.064, -0.992, -0.320, 19:29:46.072, 1589045386072
115, 475.24, 0.00, 0.00, 0.00, 0.064, -0.992, -0.320, 19:29:46.085, 1589045386085
116, 222.69, 0.00, 0.00, 0.00, 0.064, -0.992, -0.320, 19:29:46.085, 1589045386085
117, -86.86, 0.00, 0.00, 0.00, 0.064, -0.992, -0.320, 19:29:46.101, 1589045386101
118, 182.86, 0.00, 0.00, 0.00, 0.064, -0.992, -0.320, 19:29:46.101, 1589045386101
119, 478.98, 0.00, 0.00, 0.00, 0.064, -0.992, -0.320, 19:29:46.102, 1589045386102
120, 206.90, 0.00, 0.00, 0.00, 0.064, -0.992, -0.320, 19:29:46.102, 1589045386102
121, -74.73, 0.00, 0.00, 0.00, 0.064, -0.992, -0.320, 19:29:46.115, 1589045386115
122, 191.39, 0.00, 0.00, 0.00, 0.064, -0.992, -0.320, 19:29:46.115, 1589045386115
123, 464.69, 0.00, 0.00, 0.00, 0.064, -0.992, -0.320, 19:29:46.131, 1589045386131
124, 214.54, 0.00, 0.00, 0.00, 0.064, -0.992, -0.320, 19:29:46.131, 1589045386131
125, -78.70, 0.00, 0.00, 0.00, 0.064, -0.992, -0.320, 19:29:46.132, 1589045386132
126, 191.91, 0.00, 0.00, 0.00, 0.064, -0.992, -0.320, 19:29:46.132, 1589045386132
127, 482.90, 0.00, 0.00, 0.00, 0.064, -0.992, -0.320, 19:29:46.146, 1589045386146
128, 200.96, 0.00, 0.00, 0.00, 0.064, -0.992, -0.320, 19:29:46.146, 1589045386146
129, -78.95, 0.00, 0.00, 0.00, 0.064, -0.992, -0.320, 19:29:46.178, 1589045386178
130, 206.69, 0.00, 0.00, 0.00, 0.064, -0.992, -0.320, 19:29:46.178, 1589045386178
131, 474.96, 0.00, 0.00, 0.00, 0.064, -0.992, -0.320, 19:29:46.179, 1589045386179
132, 196.79, 0.00, 0.00, 0.00, 0.064, -0.992, -0.320, 19:29:46.179, 1589045386179
133, -78.65, 0.00, 0.00, 0.00, 0.064, -0.992, -0.320, 19:29:46.179, 1589045386179
134, 213.64, 0.00, 0.00, 0.00, 0.064, -0.992, -0.320, 19:29:46.179, 1589045386179
135, 481.14, 0.00, 0.00, 0.00, 0.064, -0.992, -0.320, 19:29:46.180, 1589045386180
136, 186.51, 0.00, 0.00, 0.00, 0.064, -0.992, -0.320, 19:29:46.180, 1589045386180
137, -72.78, 0.00, 0.00, 0.00, 0.064, -0.992, -0.320, 19:29:46.190, 1589045386190
138, 196.46, 0.00, 0.00, 0.00, 0.064, -0.992, -0.320, 19:29:46.190, 1589045386190
139, 479.61, 0.00, 0.00, 0.00, 0.064, -0.992, -0.320, 19:29:46.222, 1589045386222
140, 201.27, 0.00, 0.00, 0.00, 0.064, -0.992, -0.320, 19:29:46.222, 1589045386222
141, -90.67, 0.00, 0.00, 0.00, 0.064, -0.992, -0.320, 19:29:46.222, 1589045386222
142, 194.00, 0.00, 0.00, 0.00, 0.064, -0.992, -0.320, 19:29:46.222, 1589045386222
143, 482.08, 0.00, 0.00, 0.00, 0.064, -0.992, -0.320, 19:29:46.223, 1589045386223
144, 217.52, 0.00, 0.00, 0.00, 0.064, -0.992, -0.320, 19:29:46.223, 1589045386223
145, -76.54, 0.00, 0.00, 0.00, 0.064, -0.992, -0.320, 19:29:46.235, 1589045386235
146, 193.38, 0.00, 0.00, 0.00, 0.064, -0.992, -0.320, 19:29:46.235, 1589045386235
147, 501.11, 0.00, 0.00, 0.00, 0.064, -0.992, -0.320, 19:29:46.251, 1589045386251
148, 201.31, 0.00, 0.00, 0.00, 0.064, -0.992, -0.320, 19:29:46.251, 1589045386251
149, -76.14, 0.00, 0.00, 0.00, 0.064, -0.992, -0.320, 19:29:46.252, 1589045386252
150, 204.93, 0.00, 0.00, 0.00, 0.064, -0.992, -0.320, 19:29:46.252, 1589045386252
151, 486.85, 0.00, 0.00, 0.00, 0.064, -0.992, -0.320, 19:29:46.265, 1589045386265
152, 211.35, 0.00, 0.00, 0.00, 0.064, -0.992, -0.320, 19:29:46.265, 1589045386265
153, -73.13, 0.00, 0.00, 0.00, 0.064, -0.992, -0.320, 19:29:46.281, 1589045386281
154, 207.42, 0.00, 0.00, 0.00, 0.064, -0.992, -0.320, 19:29:46.281, 1589045386281
155, 481.80, 0.00, 0.00, 0.00, 0.064, -0.992, -0.320, 19:29:46.282, 1589045386282
156, 201.37, 0.00, 0.00, 0.00, 0.064, -0.992, -0.320, 19:29:46.282, 1589045386282
157, -68.92, 0.00, 0.00, 0.00, 0.064, -0.992, -0.320, 19:29:46.296, 1589045386296
158, 210.57, 0.00, 0.00, 0.00, 0.064, -0.992, -0.320, 19:29:46.296, 1589045386296
159, 490.81, 0.00, 0.00, 0.00, 0.064, -0.992, -0.320, 19:29:46.328, 1589045386328
160, 215.31, 0.00, 0.00, 0.00, 0.064, -0.992, -0.320, 19:29:46.328, 1589045386328
161, -80.67, 0.00, 0.00, 0.00, 0.064, -0.992, -0.320, 19:29:46.328, 1589045386328
162, 219.87, 0.00, 0.00, 0.00, 0.064, -0.992, -0.320, 19:29:46.328, 1589045386328
163, 497.14, 0.00, 0.00, 0.00, 0.064, -0.992, -0.320, 19:29:46.329, 1589045386329
164, 210.53, 0.00, 0.00, 0.00, 0.064, -0.992, -0.320, 19:29:46.329, 1589045386329
165, -85.53, 0.00, 0.00, 0.00, 0.064, -0.992, -0.320, 19:29:46.330, 1589045386330
166, 208.62, 0.00, 0.00, 0.00, 0.064, -0.992, -0.320, 19:29:46.330, 1589045386330
167, 499.67, 0.00, 0.00, 0.00, 0.064, -0.992, -0.320, 19:29:46.341, 1589045386341
168, 210.28, 0.00, 0.00, 0.00, 0.064, -0.992, -0.320, 19:29:46.341, 1589045386341
169, -82.39, 0.00, 0.00, 0.00, 0.064, -0.992, -0.320, 19:29:46.356, 1589045386356
170, 221.34, 0.00, 0.00, 0.00, 0.064, -0.992, -0.320, 19:29:46.356, 1589045386356
171, 493.06, 0.00, 0.00, 0.00, 0.064, -0.992, -0.320, 19:29:46.371, 1589045386371
172, 208.68, 0.00, 0.00, 0.00, 0.064, -0.992, -0.320, 19:29:46.371, 1589045386371
173, -59.98, 0.00, 0.00, 0.00, 0.064, -0.992, -0.320, 19:29:46.372, 1589045386372
174, 208.37, 0.00, 0.00, 0.00, 0.064, -0.992, -0.320, 19:29:46.372, 1589045386372
175, 493.85, 0.00, 0.00, 0.00, 0.064, -0.992, -0.320, 19:29:46.402, 1589045386402
176, 208.20, 0.00, 0.00, 0.00, 0.064, -0.992, -0.320, 19:29:46.402, 1589045386402
177, -59.44, 0.00, 0.00, 0.00, 0.064, -0.992, -0.320, 19:29:46.403, 1589045386403
178, 224.23, 0.00, 0.00, 0.00, 0.064, -0.992, -0.320, 19:29:46.403, 1589045386403
179, 478.37, 0.00, 0.00, 0.00, 0.064, -0.992, -0.320, 19:29:46.404, 1589045386404
180, 209.72, 0.00, 0.00, 0.00, 0.064, -0.992, -0.320, 19:29:46.404, 1589045386404
181, -66.43, 0.00, 0.00, 0.00, 0.064, -0.992, -0.320, 19:29:46.416, 1589045386416
182, 223.85, 0.00, 0.00, 0.00, 0.064, -0.992, -0.320, 19:29:46.416, 1589045386416
183, 492.12, 0.00, 0.00, 0.00, 0.064, -0.992, -0.320, 19:29:46.448, 1589045386448
184, 208.99, 0.00, 0.00, 0.00, 0.064, -0.992, -0.320, 19:29:46.448, 1589045386448
185, -74.44, 0.00, 0.00, 0.00, 0.064, -0.992, -0.320, 19:29:46.448, 1589045386448
186, 223.24, 0.00, 0.00, 0.00, 0.064, -0.992, -0.320, 19:29:46.448, 1589045386448
187, 503.72, 0.00, 0.00, 0.00, 0.064, -0.992, -0.320, 19:29:46.449, 1589045386449
188, 200.13, 0.00, 0.00, 0.00, 0.064, -0.992, -0.320, 19:29:46.449, 1589045386449
189, -78.89, 0.00, 0.00, 0.00, 0.064, -0.992, -0.320, 19:29:46.450, 1589045386450
190, 220.47, 0.00, 0.00, 0.00, 0.064, -0.992, -0.320, 19:29:46.450, 1589045386450
191, 499.95, 0.00, 0.00, 0.00, 0.064, -0.992, -0.320, 19:29:46.461, 1589045386461
192, 209.67, 0.00, 0.00, 0.00, 0.064, -0.992, -0.320, 19:29:46.461, 1589045386461
193, -81.72, 0.00, 0.00, 0.00, 0.064, -0.992, -0.320, 19:29:46.476, 1589045386476
194, 219.13, 0.00, 0.00, 0.00, 0.064, -0.992, -0.320, 19:29:46.476, 1589045386476
195, 494.61, 0.00, 0.00, 0.00, 0.064, -0.992, -0.320, 19:29:46.507, 1589045386507
196, 205.08, 0.00, 0.00, 0.00, 0.064, -0.992, -0.320, 19:29:46.507, 1589045386507
197, -67.27, 0.00, 0.00, 0.00, 0.064, -0.992, -0.320, 19:29:46.507, 1589045386507
198, 220.46, 0.00, 0.00, 0.00, 0.064, -0.992, -0.320, 19:29:46.507, 1589045386507
199, 491.52, 0.00, 0.00, 0.00, 0.064, -0.992, -0.320, 19:29:46.547, 1589045386547
200, 197.65, 0.00, 0.00, 0.00, 0.064, -0.992, -0.320, 19:29:46.547, 1589045386547
0, -1042.43, 0.00, 0.00, 0.00, 0.064, -0.992, -0.320, 19:29:46.547, 1589045386547
1, -761.08, 0.00, 0.00, 0.00, 0.064, -0.992, -0.320, 19:29:46.547, 1589045386547
2, -493.20, 0.00, 0.00, 0.00, 0.064, -0.992, -0.320, 19:29:46.547, 1589045386547
3, -782.08, 0.00, 0.00, 0.00, 0.064, -0.992, -0.320, 19:29:46.547, 1589045386547
4, -1047.57, 0.00, 0.00, 0.00, 0.064, -0.992, -0.320, 19:29:46.547, 1589045386547
5, -765.21, 0.00, 0.00, 0.00, 0.064, -0.992, -0.320, 19:29:46.548, 1589045386548
6, -476.05, 0.00, 0.00, 0.00, 0.064, -0.992, -0.320, 19:29:46.548, 1589045386548
7, -775.29, 0.00, 0.00, 0.00, 0.064, -0.992, -0.320, 19:29:46.551, 1589045386551
8, -1063.29, 0.00, 0.00, 0.00, 0.064, -0.992, -0.320, 19:29:46.551, 1589045386551
5, -1761.31, 977.40, -4.79, -191.48, 0.064, -0.992, -0.320, 19:29:46.566, 1589045386566
6, -1827.47, 1135.56, -494.98, -191.48, 0.064, -0.992, -0.320, 19:29:46.566, 1589045386566
11, -2123.66, 1135.56, -494.98, -191.48, 0.064, -0.992, -0.320, 19:29:46.567, 1589045386567
12, -2392.29, 1135.56, -494.98, -191.48, 0.064, -0.992, -0.320, 19:29:46.567, 1589045386567
13, -2095.25, 1135.56, -494.98, -191.48, 0.064, -0.992, -0.320, 19:29:46.580, 1589045386580
14, -1826.33, 1135.56, -494.98, -191.48, 0.064, -0.992, -0.320, 19:29:46.580, 1589045386580
15, -2121.36, 1135.56, -494.98, -191.48, 0.064, -0.992, -0.320, 19:29:46.596, 1589045386596
16, -2391.71, 1135.56, -494.98, -191.48, 0.064, -0.992, -0.320, 19:29:46.596, 1589045386596
17, -2085.31, 1135.56, -494.98, -191.48, 0.064, -0.992, -0.320, 19:29:46.597, 1589045386597
18, -1821.09, 1135.56, -494.98, -191.48, 0.064, -0.992, -0.320, 19:29:46.597, 1589045386597
19, -2103.87, 1135.56, -494.98, -191.48, 0.064, -0.992, -0.320, 19:29:46.628, 1589045386628
20, -2392.89, 1135.56, -494.98, -191.48, 0.064, -0.992, -0.320, 19:29:46.628, 1589045386628
21, -2109.26, 1135.56, -494.98, -191.48, 0.064, -0.992, -0.320, 19:29:46.629, 1589045386629
22, -1818.82, 1135.56, -494.98, -191.48, 0.064, -0.992, -0.320, 19:29:46.629, 1589045386629
23, -2110.32, 1135.56, -494.98, -191.48, 0.064, -0.992, -0.320, 19:29:46.629, 1589045386629
24, -2402.41, 1135.56, -494.98, -191.48, 0.064, -0.992, -0.320, 19:29:46.629, 1589045386629
25, -2092.16, 1135.56, -494.98, -191.48, 0.064, -0.992, -0.320, 19:29:46.641, 1589045386641
26, -1816.01, 1135.56, -494.98, -191.48, 0.064, -0.992, -0.320, 19:29:46.641, 1589045386641
27, -2139.72, 1135.56, -494.98, -191.48, 0.064, -0.992, -0.320, 19:29:46.656, 1589045386656
28, -2399.53, 1135.56, -494.98, -191.48, 0.064, -0.992, -0.320, 19:29:46.656, 1589045386656
29, -2089.02, 1135.56, -494.98, -191.48, 0.064, -0.992, -0.320, 19:29:46.657, 1589045386657
30, -1822.79, 1135.56, -494.98, -191.48, 0.064, -0.992, -0.320, 19:29:46.657, 1589045386657
31, -2126.91, 1135.56, -494.98, -191.48, 0.064, -0.992, -0.320, 19:29:46.671, 1589045386671
32, -2410.83, 1135.56, -494.98, -191.48, 0.064, -0.992, -0.320, 19:29:46.671, 1589045386671
33, -2096.43, 1135.56, -494.98, -191.48, 0.064, -0.992, -0.320, 19:29:46.686, 1589045386686
34, -1819.95, 1135.56, -494.98, -191.48, 0.064, -0.992, -0.320, 19:29:46.686, 1589045386686
35, -2124.07, 1135.56, -494.98, -191.48, 0.064, -0.992, -0.320, 19:29:46.687, 1589045386687
36, -2405.57, 1135.56, -494.98, -191.48, 0.064, -0.992, -0.320, 19:29:46.687, 1589045386687
37, -2103.36, 1135.56, -494.98, -191.48, 0.064, -0.992, -0.320, 19:29:46.701, 1589045386701
38, -1832.14, 1135.56, -494.98, -191.48, 0.064, -0.992, -0.320, 19:29:46.701, 1589045386701
39, -2125.86, 1135.56, -494.98, -191.48, 0.064, -0.992, -0.320, 19:29:46.733, 1589045386733
40, -2404.36, 1135.56, -494.98, -191.48, 0.064, -0.992, -0.320, 19:29:46.733, 1589045386733
41, -2106.84, 1135.56, -494.98, -191.48, 0.064, -0.992, -0.320, 19:29:46.733, 1589045386733
42, -1835.99, 1135.56, -494.98, -191.48, 0.064, -0.992, -0.320, 19:29:46.733, 1589045386733
43, -2132.92, 1135.56, -494.98, -191.48, 0.064, -0.992, -0.320, 19:29:46.734, 1589045386734
44, -2395.76, 1135.56, -494.98, -191.48, 0.064, -0.992, -0.320, 19:29:46.734, 1589045386734
45, -2121.82, 1135.56, -494.98, -191.48, 0.064, -0.992, -0.320, 19:29:46.735, 1589045386735
46, -1831.92, 1135.56, -494.98, -191.48, 0.064, -0.992, -0.320, 19:29:46.735, 1589045386735
47, -2149.98, 1135.56, -494.98, -191.48, 0.064, -0.992, -0.320, 19:29:46.746, 1589045386746
48, -2407.88, 1135.56, -494.98, -191.48, 0.064, -0.992, -0.320, 19:29:46.746, 1589045386746
49, -2107.24, 1135.56, -494.98, -191.48, 0.064, -0.992, -0.320, 19:29:46.761, 1589045386761
50, -1847.92, 1135.56, -494.98, -191.48, 0.064, -0.992, -0.320, 19:29:46.761, 1589045386761
51, -2145.73, 1135.56, -494.98, -191.48, 0.064, -0.992, -0.320, 19:29:46.776, 1589045386776
52, -2423.46, 1135.56, -494.98, -191.48, 0.064, -0.992, -0.320, 19:29:46.776, 1589045386776
53, -2108.15, 1135.56, -494.98, -191.48, 0.064, -0.992, -0.320, 19:29:46.777, 1589045386777
54, -1823.18, 1135.56, -494.98, -191.48, 0.064, -0.992, -0.320, 19:29:46.777, 1589045386777
55, -2154.02, 1135.56, -494.98, -191.48, 0.064, -0.992, -0.320, 19:29:46.791, 1589045386791
56, -2420.83, 1135.56, -494.98, -191.48, 0.064, -0.992, -0.320, 19:29:46.791, 1589045386791
57, -2103.77, 1135.56, -494.98, -191.48, 0.064, -0.992, -0.320, 19:29:46.809, 1589045386809
58, -1834.67, 1135.56, -494.98, -191.48, 0.064, -0.992, -0.320, 19:29:46.809, 1589045386809
59, -2137.23, 1135.56, -494.98, -191.48, 0.064, -0.992, -0.320, 19:29:46.809, 1589045386809
60, -2407.50, 1135.56, -494.98, -191.48, 0.064, -0.992, -0.320, 19:29:46.809, 1589045386809
61, -2104.65, 1135.56, -494.98, -191.48, 0.064, -0.992, -0.320, 19:29:46.821, 1589045386821
62, -1832.86, 1135.56, -494.98, -191.48, 0.064, -0.992, -0.320, 19:29:46.821, 1589045386821
63, -2124.67, 1135.56, -494.98, -191.48, 0.064, -0.992, -0.320, 19:29:46.836, 1589045386836
64, -2418.92, 1135.56, -494.98, -191.48, 0.064, -0.992, -0.320, 19:29:46.836, 1589045386836
65, -2114.58, 1135.56, -494.98, -191.48, 0.064, -0.992, -0.320, 19:29:46.837, 1589045386837
66, -1823.32, 1135.56, -494.98, -191.48, 0.064, -0.992, -0.320, 19:29:46.837, 1589045386837
67, -2156.86, 1135.56, -494.98, -191.48, 0.064, -0.992, -0.320, 19:29:46.851, 1589045386851
68, -2417.11, 1135.56, -494.98, -191.48, 0.064, -0.992, -0.320, 19:29:46.851, 1589045386851
69, -2106.51, 1135.56, -494.98, -191.48, 0.064, -0.992, -0.320, 19:29:46.867, 1589045386867
70, -1836.41, 1135.56, -494.98, -191.48, 0.064, -0.992, -0.320, 19:29:46.867, 1589045386867
71, -2159.12, 1135.56, -494.98, -191.48, 0.064, -0.992, -0.320, 19:29:46.868, 1589045386868
72, -2427.15, 1135.56, -494.98, -191.48, 0.064, -0.992, -0.320, 19:29:46.868, 1589045386868
73, -2090.86, 1135.56, -494.98, -191.48, 0.064, -0.992, -0.320, 19:29:46.881, 1589045386881
74, -1830.53, 1135.56, -494.98, -191.48, 0.064, -0.992, -0.320, 19:29:46.881, 1589045386881
75, -2165.26, 1135.56, -494.98, -191.48, 0.064, -0.992, -0.320, 19:29:46.896, 1589045386896
76, -2421.61, 1135.56, -494.98, -191.48, 0.064, -0.992, -0.320, 19:29:46.896, 1589045386896
77, -2116.76, 1135.56, -494.98, -191.48, 0.064, -0.992, -0.320, 19:29:46.897, 1589045386897
78, -1840.98, 1135.56, -494.98, -191.48, 0.064, -0.992, -0.320, 19:29:46.897, 1589045386897
79, -2143.73, 1135.56, -494.98, -191.48, 0.064, -0.992, -0.320, 19:29:46.910, 1589045386910
80, -2423.80, 1135.56, -494.98, -191.48, 0.064, -0.992, -0.320, 19:29:46.910, 1589045386910
81, -2115.11, 1135.56, -494.98, -191.48, 0.064, -0.992, -0.320, 19:29:46.926, 1589045386926
82, -1837.41, 1135.56, -494.98, -191.48, 0.064, -0.992, -0.320, 19:29:46.926, 1589045386926
83, -2137.59, 1135.56, -494.98, -191.48, 0.064, -0.992, -0.320, 19:29:46.928, 1589045386928
84, -2428.76, 1135.56, -494.98, -191.48, 0.064, -0.992, -0.320, 19:29:46.928, 1589045386928
85, -2111.24, 1135.56, -494.98, -191.48, 0.064, -0.992, -0.320, 19:29:46.957, 1589045386957
86, -1829.78, 1135.56, -494.98, -191.48, 0.064, -0.992, -0.320, 19:29:46.957, 1589045386957
87, -2162.02, 1135.56, -494.98, -191.48, 0.064, -0.992, -0.320, 19:29:46.958, 1589045386958
88, -2421.03, 1135.56, -494.98, -191.48, 0.064, -0.992, -0.320, 19:29:46.958, 1589045386958
89, -2098.84, 1135.56, -494.98, -191.48, 0.064, -0.992, -0.320, 19:29:46.958, 1589045386958
90, -1840.52, 1135.56, -494.98, -191.48, 0.064, -0.992, -0.320, 19:29:46.958, 1589045386958
91, -2147.12, 1135.56, -494.98, -191.48, 0.064, -0.992, -0.320, 19:29:46.971, 1589045386971
92, -2431.89, 1135.56, -494.98, -191.48, 0.064, -0.992, -0.320, 19:29:46.971, 1589045386971
93, -2108.77, 1135.56, -494.98, -191.48, 0.064, -0.992, -0.320, 19:29:46.986, 1589045386986
94, -1834.52, 1135.56, -494.98, -191.48, 0.064, -0.992, -0.320, 19:29:46.986, 1589045386986
95, -2166.01, 1135.56, -494.98, -191.48, 0.064, -0.992, -0.320, 19:29:47.001, 1589045387001
96, -2429.66, 1135.56, -494.98, -191.48, 0.064, -0.992, -0.320, 19:29:47.001, 1589045387001
97, -2088.95, 1135.56, -494.98, -191.48, 0.064, -0.992, -0.320, 19:29:47.002, 1589045387002
98, -1828.84, 1135.56, -494.98, -191.48, 0.064, -0.992, -0.320, 19:29:47.002, 1589045387002
99, -2164.65, 1135.56, -494.98, -191.48, 0.064, -0.992, -0.320, 19:29:47.016, 1589045387016
100, -2422.15, 1135.56, -494.98, -191.48, 0.064, -0.992, -0.320, 19:29:47.016, 1589045387016
101, -2109.23, 1135.56, -494.98, -191.48, 0.064, -0.992, -0.320, 19:29:47.017, 1589045387017
102, -1840.03, 1135.56, -494.98, -191.48, 0.064, -0.992, -0.320, 19:29:47.017, 1589045387017
103, -2158.04, 1135.56, -494.98, -191.48, 0.064, -0.992, -0.320, 19:29:47.030, 1589045387030
104, -2430.40, 1135.56, -494.98, -191.48, 0.064, -0.992, -0.320, 19:29:47.030, 1589045387030
105, -2099.22, 1135.56, -494.98, -191.48, 0.064, -0.992, -0.320, 19:29:47.046, 1589045387046
106, -1825.62, 1135.56, -494.98, -191.48, 0.064, -0.992, -0.320, 19:29:47.046, 1589045387046
107, -2149.49, 1135.56, -494.98, -191.48, 0.064, -0.992, -0.320, 19:29:47.047, 1589045387047
108, -2433.72, 1135.56, -494.98, -191.48, 0.064, -0.992, -0.320, 19:29:47.047, 1589045387047
109, -2119.73, 1135.56, -494.98, -191.48, 0.064, -0.992, -0.320, 19:29:47.061, 1589045387061
110, -1825.04, 1135.56, -494.98, -191.48, 0.064, -0.992, -0.320, 19:29:47.061, 1589045387061
111, -2169.87, 1135.56, -494.98, -191.48, 0.064, -0.992, -0.320, 19:29:47.076, 1589045387076
112, -2432.20, 1135.56, -494.98, -191.48, 0.064, -0.992, -0.320, 19:29:47.076, 1589045387076
113, -2098.54, 1135.56, -494.98, -191.48, 0.064, -0.992, -0.320, 19:29:47.077, 1589045387077
114, -1832.81, 1135.56, -494.98, -191.48, 0.064, -0.992, -0.320, 19:29:47.077, 1589045387077
115, -2167.00, 1135.56, -494.98, -191.48, 0.064, -0.992, -0.320, 19:29:47.090, 1589045387090
116, -2423.32, 1135.56, -494.98, -191.48, 0.064, -0.992, -0.320, 19:29:47.090, 1589045387090
117, -2090.85, 1135.56, -494.98, -191.48, 0.064, -0.992, -0.320, 19:29:47.107, 1589045387107
118, -1824.62, 1135.56, -494.98, -191.48, 0.064, -0.992, -0.320, 19:29:47.107, 1589045387107
119, -2163.48, 1135.56, -494.98, -191.48, 0.064, -0.992, -0.320, 19:29:47.108, 1589045387108
120, -2425.79, 1135.56, -494.98, -191.48, 0.064, -0.992, -0.320, 19:29:47.108, 1589045387108
121, -2094.21, 1135.56, -494.98, -191.48, 0.064, -0.992, -0.320, 19:29:47.121, 1589045387121
122, -1813.70, 1135.56, -494.98, -191.48, 0.064, -0.992, -0.320, 19:29:47.121, 1589045387121
123, -2154.54, 1135.56, -494.98, -191.48, 0.064, -0.992, -0.320, 19:29:47.136, 1589045387136
124, -2430.02, 1135.56, -494.98, -191.48, 0.064, -0.992, -0.320, 19:29:47.136, 1589045387136
125, -2094.24, 1135.56, -494.98, -191.48, 0.064, -0.992, -0.320, 19:29:47.137, 1589045387137
126, -1824.04, 1135.56, -494.98, -191.48, 0.064, -0.992, -0.320, 19:29:47.137, 1589045387137
127, -2157.17, 1135.56, -494.98, -191.48, 0.064, -0.992, -0.320, 19:29:47.151, 1589045387151
128, -2421.75, 1135.56, -494.98, -191.48, 0.064, -0.992, -0.320, 19:29:47.151, 1589045387151
129, -2100.94, 1135.56, -494.98, -191.48, 0.064, -0.992, -0.320, 19:29:47.166, 1589045387166
130, -1836.71, 1135.56, -494.98, -191.48, 0.064, -0.992, -0.320, 19:29:47.166, 1589045387166
131, -2161.70, 1135.56, -494.98, -191.48, 0.064, -0.992, -0.320, 19:29:47.182, 1589045387182
132, -2429.50, 1135.56, -494.98, -191.48, 0.064, -0.992, -0.320, 19:29:47.182, 1589045387182
133, -2106.61, 1135.56, -494.98, -191.48, 0.064, -0.992, -0.320, 19:29:47.182, 1589045387182
134, -1836.79, 1135.56, -494.98, -191.48, 0.064, -0.992, -0.320, 19:29:47.182, 1589045387182
135, -2158.64, 1135.56, -494.98, -191.48, 0.064, -0.992, -0.320, 19:29:47.196, 1589045387196
136, -2437.76, 1135.56, -494.98, -191.48, 0.064, -0.992, -0.320, 19:29:47.196, 1589045387196
137, -2096.46, 1135.56, -494.98, -191.48, 0.064, -0.992, -0.320, 19:29:47.197, 1589045387197
138, -1827.48, 1135.56, -494.98, -191.48, 0.064, -0.992, -0.320, 19:29:47.197, 1589045387197
139, -2177.00, 1135.56, -494.98, -191.48, 0.064, -0.992, -0.320, 19:29:47.211, 1589045387211
140, -2450.82, 1135.56, -494.98, -191.48, 0.064, -0.992, -0.320, 19:29:47.211, 1589045387211
141, -2098.09, 1135.56, -494.98, -191.48, 0.064, -0.992, -0.320, 19:29:47.226, 1589045387226
142, -1826.35, 1135.56, -494.98, -191.48, 0.064, -0.992, -0.320, 19:29:47.226, 1589045387226
143, -2173.25, 1135.56, -494.98, -191.48, 0.064, -0.992, -0.320, 19:29:47.227, 1589045387227
144, -2448.57, 1135.56, -494.98, -191.48, 0.064, -0.992, -0.320, 19:29:47.227, 1589045387227
145, -2101.49, 1135.56, -494.98, -191.48, 0.064, -0.992, -0.320, 19:29:47.241, 1589045387241
146, -1838.18, 1135.56, -494.98, -191.48, 0.064, -0.992, -0.320, 19:29:47.241, 1589045387241
147, -2168.12, 1135.56, -494.98, -191.48, 0.064, -0.992, -0.320, 19:29:47.257, 1589045387257
148, -2428.73, 1135.56, -494.98, -191.48, 0.064, -0.992, -0.320, 19:29:47.257, 1589045387257
149, -2101.53, 1135.56, -494.98, -191.48, 0.064, -0.992, -0.320, 19:29:47.258, 1589045387258
150, -1826.32, 1135.56, -494.98, -191.48, 0.064, -0.992, -0.320, 19:29:47.258, 1589045387258
151, -2179.33, 1135.56, -494.98, -191.48, 0.064, -0.992, -0.320, 19:29:47.287, 1589045387287
152, -2433.44, 1135.56, -494.98, -191.48, 0.064, -0.992, -0.320, 19:29:47.287, 1589045387287
153, -2088.50, 1135.56, -494.98, -191.48, 0.064, -0.992, -0.320, 19:29:47.288, 1589045387288
154, -1831.34, 1135.56, -494.98, -191.48, 0.064, -0.992, -0.320, 19:29:47.288, 1589045387288
155, -2181.26, 1135.56, -494.98, -191.48, 0.064, -0.992, -0.320, 19:29:47.288, 1589045387288
156, -2422.25, 1135.56, -494.98, -191.48, 0.064, -0.992, -0.320, 19:29:47.288, 1589045387288
157, -2093.91, 1135.56, -494.98, -191.48, 0.064, -0.992, -0.320, 19:29:47.301, 1589045387301
158, -1836.78, 1135.56, -494.98, -191.48, 0.064, -0.992, -0.320, 19:29:47.301, 1589045387301
159, -2167.75, 1135.56, -494.98, -191.48, 0.064, -0.992, -0.320, 19:29:47.333, 1589045387333
160, -2434.09, 1135.56, -494.98, -191.48, 0.064, -0.992, -0.320, 19:29:47.333, 1589045387333
161, -2094.65, 1135.56, -494.98, -191.48, 0.064, -0.992, -0.320, 19:29:47.333, 1589045387333
162, -1821.48, 1135.56, -494.98, -191.48, 0.064, -0.992, -0.320, 19:29:47.333, 1589045387333
163, -2176.48, 1135.56, -494.98, -191.48, 0.064, -0.992, -0.320, 19:29:47.334, 1589045387334
164, -2450.54, 1135.56, -494.98, -191.48, 0.064, -0.992, -0.320, 19:29:47.334, 1589045387334
165, -2085.66, 1135.56, -494.98, -191.48, 0.064, -0.992, -0.320, 19:29:47.335, 1589045387335
166, -1826.43, 1135.56, -494.98, -191.48, 0.064, -0.992, -0.320, 19:29:47.335, 1589045387335
167, -2188.97, 1135.56, -494.98, -191.48, 0.064, -0.992, -0.320, 19:29:47.346, 1589045387346
168, -2440.57, 1135.56, -494.98, -191.48, 0.064, -0.992, -0.320, 19:29:47.346, 1589045387346
169, -2086.11, 1135.56, -494.98, -191.48, 0.064, -0.992, -0.320, 19:29:47.361, 1589045387361
170, -1826.68, 1135.56, -494.98, -191.48, 0.064, -0.992, -0.320, 19:29:47.361, 1589045387361
171, -2177.99, 1135.56, -494.98, -191.48, 0.064, -0.992, -0.320, 19:29:47.376, 1589045387376
172, -2430.27, 1135.56, -494.98, -191.48, 0.064, -0.992, -0.320, 19:29:47.376, 1589045387376
173, -2093.37, 1135.56, -494.98, -191.48, 0.064, -0.992, -0.320, 19:29:47.378, 1589045387378
174, -1824.54, 1135.56, -494.98, -191.48, 0.064, -0.992, -0.320, 19:29:47.378, 1589045387378
175, -2161.39, 1135.56, -494.98, -191.48, 0.064, -0.992, -0.320, 19:29:47.390, 1589045387390
176, -2436.74, 1135.56, -494.98, -191.48, 0.064, -0.992, -0.320, 19:29:47.390, 1589045387390
177, -2099.64, 1135.56, -494.98, -191.48, 0.064, -0.992, -0.320, 19:29:47.406, 1589045387406
178, -1823.82, 1135.56, -494.98, -191.48, 0.064, -0.992, -0.320, 19:29:47.406, 1589045387406
179, -2180.32, 1135.56, -494.98, -191.48, 0.064, -0.992, -0.320, 19:29:47.407, 1589045387407
180, -2438.46, 1135.56, -494.98, -191.48, 0.064, -0.992, -0.320, 19:29:47.407, 1589045387407
181, -2103.23, 1135.56, -494.98, -191.48, 0.064, -0.992, -0.320, 19:29:47.421, 1589045387421
182, -1806.98, 1135.56, -494.98, -191.48, 0.064, -0.992, -0.320, 19:29:47.421, 1589045387421
183, -2170.64, 1135.56, -494.98, -191.48, 0.064, -0.992, -0.320, 19:29:47.436, 1589045387436
184, -2447.92, 1135.56, -494.98, -191.48, 0.064, -0.992, -0.320, 19:29:47.436, 1589045387436
185, -2076.02, 1135.56, -494.98, -191.48, 0.064, -0.992, -0.320, 19:29:47.437, 1589045387437
186, -1829.37, 1135.56, -494.98, -191.48, 0.064, -0.992, -0.320, 19:29:47.437, 1589045387437
187, -2185.37, 1135.56, -494.98, -191.48, 0.064, -0.992, -0.320, 19:29:47.451, 1589045387451
188, -2446.84, 1135.56, -494.98, -191.48, 0.064, -0.992, -0.320, 19:29:47.451, 1589045387451
189, -2106.55, 1135.56, -494.98, -191.48, 0.064, -0.992, -0.320, 19:29:47.466, 1589045387466
190, -1821.70, 1135.56, -494.98, -191.48, 0.064, -0.992, -0.320, 19:29:47.466, 1589045387466
191, -2165.57, 1135.56, -494.98, -191.48, 0.064, -0.992, -0.320, 19:29:47.467, 1589045387467
192, -2460.96, 1135.56, -494.98, -191.48, 0.064, -0.992, -0.320, 19:29:47.467, 1589045387467
193, -2085.48, 1135.56, -494.98, -191.48, 0.064, -0.992, -0.320, 19:29:47.481, 1589045387481
194, -1814.82, 1135.56, -494.98, -191.48, 0.064, -0.992, -0.320, 19:29:47.481, 1589045387481
195, -2182.68, 1135.56, -494.98, -191.48, 0.064, -0.992, -0.320, 19:29:47.513, 1589045387513
196, -2445.79, 1135.56, -494.98, -191.48, 0.064, -0.992, -0.320, 19:29:47.513, 1589045387513
197, -2103.78, 1135.56, -494.98, -191.48, 0.064, -0.992, -0.320, 19:29:47.513, 1589045387513
198, -1828.01, 1135.56, -494.98, -191.48, 0.064, -0.992, -0.320, 19:29:47.513, 1589045387513
199, -2185.16, 1135.56, -494.98, -191.48, 0.064, -0.992, -0.320, 19:29:47.514, 1589045387514
200, -2445.22, 1135.56, -494.98, -191.48, 0.064, -0.992, -0.320, 19:29:47.514, 1589045387514
0, -742.33, 0.00, 0.00, 0.00, 0.064, -0.992, -0.320, 19:29:47.515, 1589045387515
1, -493.23, 0.00, 0.00, 0.00, 0.064, -0.992, -0.320, 19:29:47.526, 1589045387526
2, -854.74, 0.00, 0.00, 0.00, 0.064, -0.992, -0.320, 19:29:47.526, 1589045387526
3, -1112.10, 0.00, 0.00, 0.00, 0.064, -0.992, -0.320, 19:29:47.541, 1589045387541
4, -759.98, 0.00, 0.00, 0.00, 0.064, -0.992, -0.320, 19:29:47.541, 1589045387541
5, -500.57, 0.00, 0.00, 0.00, 0.064, -0.992, -0.320, 19:29:47.542, 1589045387542
6, -853.76, 0.00, 0.00, 0.00, 0.064, -0.992, -0.320, 19:29:47.542, 1589045387542
7, -1113.81, 0.00, 0.00, 0.00, 0.064, -0.992, -0.320, 19:29:47.555, 1589045387555
8, -730.64, 0.00, 0.00, 0.00, 0.064, -0.992, -0.320, 19:29:47.555, 1589045387555
9, -499.95, 0.00, 0.00, 0.00, 0.064, -0.992, -0.320, 19:29:47.571, 1589045387571
10, -859.18, 0.00, 0.00, 0.00, 0.064, -0.992, -0.320, 19:29:47.571, 1589045387571
11, -1114.22, 0.00, 0.00, 0.00, 0.064, -0.992, -0.320, 19:29:47.572, 1589045387572
12, -738.99, 0.00, 0.00, 0.00, 0.064, -0.992, -0.320, 19:29:47.572, 1589045387572
13, -496.35, 0.00, 0.00, 0.00, 0.064, -0.992, -0.320, 19:29:47.586, 1589045387586
14, -864.88, 0.00, 0.00, 0.00, 0.064, -0.992, -0.320, 19:29:47.586, 1589045387586
15, -1106.95, 0.00, 0.00, 0.00, 0.064, -0.992, -0.320, 19:29:47.601, 1589045387601
16, -761.29, 0.00, 0.00, 0.00, 0.064, -0.992, -0.320, 19:29:47.601, 1589045387601
17, -497.95, 0.00, 0.00, 0.00, 0.064, -0.992, -0.320, 19:29:47.602, 1589045387602
18, -856.51, 0.00, 0.00, 0.00, 0.064, -0.992, -0.320, 19:29:47.602, 1589045387602
19, -1124.52, 0.00, 0.00, 0.00, 0.064, -0.992, -0.320, 19:29:47.616, 1589045387616
20, -738.46, 0.00, 0.00, 0.00, 0.064, -0.992, -0.320, 19:29:47.616, 1589045387616
21, -488.92, 0.00, 0.00, 0.00, 0.064, -0.992, -0.320, 19:29:47.631, 1589045387631
22, -849.81, 0.00, 0.00, 0.00, 0.064, -0.992, -0.320, 19:29:47.631, 1589045387631
23, -1098.02, 0.00, 0.00, 0.00, 0.064, -0.992, -0.320, 19:29:47.632, 1589045387632
24, -744.75, 0.00, 0.00, 0.00, 0.064, -0.992, -0.320, 19:29:47.632, 1589045387632
25, -472.57, 0.00, 0.00, 0.00, 0.064, -0.992, -0.320, 19:29:47.647, 1589045387647
26, -848.62, 0.00, 0.00, 0.00, 0.064, -0.992, -0.320, 19:29:47.647, 1589045387647
27, -1095.13, 0.00, 0.00, 0.00, 0.064, -0.992, -0.320, 19:29:47.661, 1589045387661
28, -726.88, 0.00, 0.00, 0.00, 0.064, -0.992, -0.320, 19:29:47.661, 1589045387661
29, -480.68, 0.00, 0.00, 0.00, 0.064, -0.992, -0.320, 19:29:47.662, 1589045387662
30, -850.22, 0.00, 0.00, 0.00, 0.064, -0.992, -0.320, 19:29:47.662, 1589045387662
31, -1101.56, 0.00, 0.00, 0.00, 0.064, -0.992, -0.320, 19:29:47.676, 1589045387676
